# wavelength flux
3359.99730 9.06055e-18
3363.02730 1.09835e-17
3366.06740 9.47133e-18
3369.09740 7.81238e-18
3372.12740 9.02775e-18
3375.15740 1.01407e-17
3378.19750 8.80968e-18
3381.22750 1.06418e-17
3384.25750 9.73511e-18
3387.28750 8.83964e-18
3390.31750 9.56008e-18
3393.35760 8.38156e-18
3396.38760 9.07052e-18
3399.41760 1.05979e-17
3402.44760 1.02762e-17
3405.48770 1.01599e-17
3408.51770 8.96722e-18
3411.54770 7.61642e-18
3414.57770 9.48253e-18
3417.61780 9.45961e-18
3420.64780 9.58917e-18
3423.67780 9.52114e-18
3426.70780 8.63556e-18
3429.73780 9.18364e-18
3432.77790 9.35839e-18
3435.80790 9.60469e-18
3438.83790 9.09766e-18
3441.86790 1.02195e-17
3444.90800 1.03273e-17
3447.93800 9.58134e-18
3450.96800 9.03165e-18
3453.99800 9.91016e-18
3457.02800 1.02163e-17
3460.06810 9.46295e-18
3463.09810 1.02223e-17
3466.12810 1.01420e-17
3469.15810 9.64572e-18
3472.18810 9.21555e-18
3475.22820 9.53285e-18
3478.25820 9.89129e-18
3481.28820 9.30387e-18
3484.31820 9.15008e-18
3487.35830 1.08038e-17
3490.38830 1.02278e-17
3493.41830 8.65256e-18
3496.44830 9.19569e-18
3499.47830 1.03883e-17
3502.51840 8.58879e-18
3505.54840 8.72880e-18
3508.57840 8.58380e-18
3511.60840 9.40817e-18
3514.64850 9.24365e-18
3517.67850 9.59120e-18
3520.70850 1.03577e-17
3523.73850 9.64654e-18
3526.77860 7.98038e-18
3529.80860 9.95201e-18
3532.83860 9.65159e-18
3535.86860 1.05751e-17
3538.89860 9.74023e-18
3541.93870 1.01153e-17
3544.96870 9.92796e-18
3547.99870 8.96183e-18
3551.02870 8.47701e-18
3554.06880 9.33511e-18
3557.09880 9.98806e-18
3560.12880 1.07505e-17
3563.15880 1.07193e-17
3566.18880 9.23024e-18
3569.22890 9.85205e-18
3572.25890 1.01024e-17
3575.28890 9.41556e-18
3578.31890 9.42412e-18
3581.35900 1.01871e-17
3584.38900 9.34710e-18
3587.41900 9.80805e-18
3590.44900 1.00313e-17
3593.47900 8.72119e-18
3596.51910 9.53739e-18
3599.54910 8.85083e-18
3602.57910 9.31661e-18
3605.60910 1.04186e-17
3608.64920 9.10845e-18
3611.67920 9.98717e-18
3614.70920 1.01108e-17
3617.73920 1.06731e-17
3620.76920 9.68240e-18
3623.80930 9.18844e-18
3626.83930 1.04557e-17
3629.86930 1.05469e-17
3632.89930 8.75846e-18
3635.93940 9.21182e-18
3638.96940 9.26607e-18
3641.99940 1.07241e-17
3645.02940 1.15177e-17
3648.05940 9.77830e-18
3651.09950 1.02479e-17
3654.12950 1.07637e-17
3657.15950 1.02753e-17
3660.18950 1.06937e-17
3663.22960 9.25563e-18
3666.25960 9.96667e-18
3669.28960 1.00791e-17
3672.31960 1.06498e-17
3675.34960 1.02034e-17
3678.38970 1.10756e-17
3681.41970 1.02490e-17
3684.44970 9.39709e-18
3687.47970 8.31484e-18
3690.51980 9.68106e-18
3693.54980 9.10182e-18
3696.57980 8.70736e-18
3699.60980 8.61521e-18
3702.63980 9.16586e-18
3705.67990 7.42800e-18
3708.70990 8.27758e-18
3711.73990 8.65873e-18
3714.76990 9.74574e-18
3717.81000 9.22539e-18
3720.84000 8.43589e-18
3723.87000 9.51311e-18
3726.90000 1.00550e-17
3729.93000 9.10977e-18
3732.97010 8.75815e-18
3736.00010 9.22098e-18
3739.03010 9.19355e-18
3742.06010 9.21706e-18
3745.10020 9.16892e-18
3748.13020 9.20130e-18
3751.16020 9.23367e-18
3754.19020 9.26603e-18
3757.22020 9.29839e-18
3760.26030 9.33074e-18
3763.29030 9.36308e-18
3766.32030 9.39542e-18
3769.35030 9.42775e-18
3772.39040 9.46007e-18
3775.42040 9.49239e-18
3778.45040 9.52470e-18
3781.48040 9.55701e-18
3784.51040 9.58931e-18
3787.55050 9.42978e-18
3790.58050 9.54053e-18
3793.61050 1.03599e-17
3796.64050 9.03688e-18
3799.68060 8.54598e-18
3802.71060 8.61467e-18
3805.74060 8.63439e-18
3808.77060 9.69086e-18
3811.80060 9.83186e-18
3814.84070 9.39352e-18
3817.87070 1.05358e-17
3820.90070 1.03772e-17
3823.93070 9.53508e-18
3826.97080 9.42412e-18
3830.00080 9.18738e-18
3833.03080 9.40141e-18
3836.06080 9.94731e-18
3839.09080 9.94156e-18
3842.13090 9.45902e-18
3845.16090 9.38299e-18
3848.19090 9.56480e-18
3851.22090 9.58954e-18
3854.26100 1.01541e-17
3857.29100 1.07354e-17
3860.32100 9.94359e-18
3863.35100 9.74314e-18
3866.38100 9.34476e-18
3869.42110 9.50347e-18
3872.45110 1.08568e-17
3875.48110 1.09874e-17
3878.51110 1.03608e-17
3881.55120 9.30986e-18
3884.58120 1.00953e-17
3887.61120 9.06660e-18
3890.64120 9.81085e-18
3893.67120 1.01068e-17
3896.71130 9.06903e-18
3899.74130 1.03208e-17
3902.77130 1.01157e-17
3905.80130 9.91769e-18
3908.84140 1.04012e-17
3911.87140 1.03191e-17
3914.90140 9.23013e-18
3917.93140 9.65729e-18
3920.96140 1.01810e-17
3924.00150 1.15692e-17
3927.03150 1.39766e-17
3930.06150 1.44440e-17
3933.09150 1.15584e-17
3936.13160 9.02380e-18
3939.16160 9.60008e-18
3942.19160 9.71202e-18
3945.22160 9.55582e-18
3948.25160 9.98015e-18
3951.29170 1.05579e-17
3954.32170 9.96165e-18
3957.35170 9.42166e-18
3960.38170 9.17555e-18
3963.42180 9.43090e-18
3966.45180 8.88576e-18
3969.48180 8.63769e-18
3972.51180 9.59822e-18
3975.54180 1.02072e-17
3978.58190 9.68967e-18
3981.61190 9.68269e-18
3984.64190 9.92848e-18
3987.67190 9.95475e-18
3990.71200 1.02353e-17
3993.74200 9.96074e-18
3996.77200 1.02195e-17
3999.80200 1.00964e-17
4002.83200 9.97786e-18
4005.87210 1.17790e-17
4008.90210 1.34468e-17
4011.93210 1.40253e-17
4014.96210 1.15945e-17
4018.00220 9.91887e-18
4021.03220 9.13333e-18
4024.06220 9.36696e-18
4027.09220 9.67900e-18
4030.12220 9.45573e-18
4033.16230 9.59224e-18
4036.19230 9.43009e-18
4039.22230 8.86108e-18
4042.25230 9.54188e-18
4045.29240 9.45475e-18
4048.32240 9.28110e-18
4051.35240 9.48130e-18
4054.38240 9.57319e-18
4057.41240 9.83610e-18
4060.45250 9.27068e-18
4063.48250 9.17767e-18
4066.51250 1.00522e-17
4069.54250 8.85463e-18
4072.58260 8.89216e-18
4075.61260 9.19234e-18
4078.64260 9.37530e-18
4081.67260 9.10365e-18
4084.70260 8.97937e-18
4087.74270 9.35902e-18
4090.77270 9.70059e-18
4093.80270 9.52338e-18
4096.83270 8.95180e-18
4099.87280 9.29246e-18
4102.90280 9.25089e-18
4105.93280 9.03261e-18
4108.96280 9.18585e-18
4111.99280 9.92415e-18
4115.03290 8.99413e-18
4118.06290 9.08118e-18
4121.09290 8.97850e-18
4124.12290 8.75257e-18
4127.16300 8.90873e-18
4130.19300 8.85782e-18
4133.22300 8.86420e-18
4136.25300 9.95741e-18
4139.29310 1.27717e-17
4142.32310 1.67971e-17
4145.35310 1.67310e-17
4148.38310 1.28964e-17
4151.41310 9.81927e-18
4154.45320 9.43841e-18
4157.48320 9.40945e-18
4160.51320 8.23629e-18
4163.54320 8.45049e-18
4166.57320 8.93749e-18
4169.61330 8.71751e-18
4172.64330 8.99749e-18
4175.67330 9.18741e-18
4178.70330 9.70260e-18
4181.74340 8.81419e-18
4184.77340 8.66383e-18
4187.80340 8.13206e-18
4190.83340 8.23007e-18
4193.86340 8.77047e-18
4196.90350 9.09426e-18
4199.93350 9.12777e-18
4202.96350 8.58890e-18
4205.99350 8.90597e-18
4209.03360 9.18470e-18
4212.06360 8.46184e-18
4215.09360 8.94733e-18
4218.12360 8.64652e-18
4221.16370 9.27017e-18
4224.19370 8.94112e-18
4227.22370 8.57058e-18
4230.25370 8.12525e-18
4233.28370 8.60845e-18
4236.32380 8.49317e-18
4239.35380 8.71021e-18
4242.38380 9.05291e-18
4245.41380 9.06578e-18
4248.44380 9.19678e-18
4251.48390 8.83420e-18
4254.51390 9.21724e-18
4257.54390 8.55853e-18
4260.57390 7.78667e-18
4263.61400 8.49123e-18
4266.64400 9.06374e-18
4269.67400 8.70217e-18
4272.70400 8.89379e-18
4275.74410 8.73935e-18
4278.77410 8.50304e-18
4281.80410 8.14362e-18
4284.83410 8.47562e-18
4287.86410 8.48769e-18
4290.90420 8.91008e-18
4293.93420 8.41128e-18
4296.96420 8.47357e-18
4299.99420 8.30264e-18
4303.03430 8.73909e-18
4306.06430 8.41933e-18
4309.09430 8.34572e-18
4312.12430 8.84023e-18
4315.15430 8.69786e-18
4318.19440 8.93780e-18
4321.22440 9.52215e-18
4324.25440 9.22255e-18
4327.28440 8.49658e-18
4330.31440 8.74234e-18
4333.35450 9.13669e-18
4336.38450 9.00767e-18
4339.41450 8.92708e-18
4342.44450 8.54733e-18
4345.48460 8.75463e-18
4348.51460 8.61584e-18
4351.54460 8.97464e-18
4354.57460 9.39021e-18
4357.61470 8.95044e-18
4360.64470 9.68199e-18
4363.67470 9.20633e-18
4366.70470 8.85095e-18
4369.73470 8.89983e-18
4372.77480 8.38960e-18
4375.80480 8.80706e-18
4378.83480 8.84666e-18
4381.86480 8.88624e-18
4384.89480 8.92579e-18
4387.93490 8.96533e-18
4390.96490 9.00483e-18
4393.99490 9.04432e-18
4397.02490 9.08379e-18
4400.06500 9.12323e-18
4403.09500 9.16265e-18
4406.12500 9.20205e-18
4409.15500 9.24142e-18
4412.19510 9.28077e-18
4415.22510 9.32010e-18
4418.25510 9.35940e-18
4421.28510 9.39868e-18
4424.31510 9.43794e-18
4427.35520 9.47718e-18
4430.38520 9.51638e-18
4433.41520 9.55558e-18
4436.44520 9.59474e-18
4439.48530 9.63388e-18
4442.51530 9.60430e-18
4445.54530 9.05768e-18
4448.57530 9.84248e-18
4451.60530 1.00282e-17
4454.64540 9.11342e-18
4457.67540 9.07934e-18
4460.70540 8.96919e-18
4463.73540 9.49572e-18
4466.76540 9.21534e-18
4469.80550 9.39186e-18
4472.83550 9.32545e-18
4475.86550 9.57908e-18
4478.89550 9.25514e-18
4481.93560 9.36652e-18
4484.96560 1.05109e-17
4487.99560 1.00470e-17
4491.02560 9.31561e-18
4494.06570 1.00601e-17
4497.09570 9.79974e-18
4500.12570 9.67050e-18
4503.15570 9.76529e-18
4506.18570 9.60657e-18
4509.22580 1.00422e-17
4512.25580 1.01600e-17
4515.28580 1.00729e-17
4518.31580 1.07817e-17
4521.35590 9.59698e-18
4524.38590 1.00041e-17
4527.41590 9.60719e-18
4530.44590 9.84060e-18
4533.47590 9.42090e-18
4536.51600 9.84768e-18
4539.54600 9.83860e-18
4542.57600 9.53577e-18
4545.60600 9.13305e-18
4548.64610 9.27808e-18
4551.67610 9.45043e-18
4554.70610 9.93386e-18
4557.73610 1.01911e-17
4560.76610 9.56952e-18
4563.80620 9.57929e-18
4566.83620 9.57367e-18
4569.86620 9.18514e-18
4572.89620 9.28987e-18
4575.93630 9.27850e-18
4578.96630 9.70984e-18
4581.99630 9.68698e-18
4585.02630 9.69180e-18
4588.05630 9.13240e-18
4591.09640 9.76471e-18
4594.12640 9.17839e-18
4597.15640 9.54506e-18
4600.18640 9.74224e-18
4603.22650 9.21661e-18
4606.25650 9.04731e-18
4609.28650 9.49701e-18
4612.31650 9.39443e-18
4615.34650 8.85462e-18
4618.38660 9.21414e-18
4621.41660 9.22924e-18
4624.44660 8.89236e-18
4627.47660 9.60145e-18
4630.51670 9.24867e-18
4633.54670 8.95785e-18
4636.57670 8.76631e-18
4639.60670 9.16073e-18
4642.63670 8.89442e-18
4645.67680 8.63917e-18
4648.70680 8.88720e-18
4651.73680 9.22187e-18
4654.76680 8.79921e-18
4657.80690 8.30694e-18
4660.83690 8.94369e-18
4663.86690 8.76721e-18
4666.89690 8.30211e-18
4669.92690 8.58613e-18
4672.96700 8.82380e-18
4675.99700 8.90266e-18
4679.02700 9.09874e-18
4682.05700 8.89565e-18
4685.09710 9.17045e-18
4688.12710 9.52719e-18
4691.15710 8.66801e-18
4694.18710 8.30960e-18
4697.21710 8.52578e-18
4700.25720 8.21195e-18
4703.28720 9.17228e-18
4706.31720 9.12092e-18
4709.34720 8.75550e-18
4712.38730 8.78654e-18
4715.41730 8.60474e-18
4718.44730 8.68238e-18
4721.47730 8.72587e-18
4724.50730 8.51475e-18
4727.54740 8.51754e-18
4730.57740 8.75054e-18
4733.60740 8.54047e-18
4736.63740 8.46391e-18
4739.67750 8.35450e-18
4742.70750 8.49326e-18
4745.73750 8.63533e-18
4748.76750 9.19412e-18
4751.79750 8.84094e-18
4754.83760 9.22757e-18
4757.86760 8.97138e-18
4760.89760 9.03756e-18
4763.92760 8.98078e-18
4766.96770 8.40034e-18
4769.99770 8.15683e-18
4773.02770 8.30801e-18
4776.05770 9.12532e-18
4779.08770 9.06856e-18
4782.12780 8.64194e-18
4785.15780 8.71434e-18
4788.18780 9.09994e-18
4791.21780 8.43519e-18
4794.25790 8.41477e-18
4797.28790 8.33080e-18
4800.31790 8.24754e-18
4803.34790 8.27182e-18
4806.37790 8.05832e-18
4809.41800 8.33759e-18
4812.44800 7.72595e-18
4815.47800 8.19041e-18
4818.50800 8.13513e-18
4821.54810 7.81075e-18
4824.57810 7.97871e-18
4827.60810 8.65305e-18
4830.63810 8.77870e-18
4833.66810 8.55915e-18
4836.70820 7.80277e-18
4839.73820 7.86149e-18
4842.76820 8.00985e-18
4845.79820 8.12996e-18
4848.83830 8.18019e-18
4851.86830 8.16040e-18
4854.89830 8.29537e-18
4857.92830 7.84197e-18
4860.95830 7.97991e-18
4863.99840 8.41516e-18
4867.02840 8.48716e-18
4870.05840 8.36590e-18
4873.08840 8.40203e-18
4876.12850 8.28567e-18
4879.15850 8.29059e-18
4882.18850 8.37215e-18
4885.21850 8.70585e-18
4888.24850 8.29545e-18
4891.28860 8.20273e-18
4894.31860 8.24023e-18
4897.34860 8.27769e-18
4900.37860 8.31515e-18
4903.41870 8.35258e-18
4906.44870 8.38999e-18
4909.47870 8.42738e-18
4912.50870 8.46475e-18
4915.54880 8.50211e-18
4918.57880 8.53944e-18
4921.60880 8.57675e-18
4924.63880 8.61404e-18
4927.66880 8.65132e-18
4930.70890 8.68857e-18
4933.73890 8.85838e-18
4936.76890 8.56403e-18
4939.79890 8.40729e-18
4942.83900 8.36434e-18
4945.86900 8.11041e-18
4948.89900 8.47861e-18
4951.92900 8.50349e-18
4954.95900 8.56653e-18
4957.99910 8.40189e-18
4961.02910 8.57053e-18
4964.05910 8.27002e-18
4967.08910 8.02295e-18
4970.12920 8.05663e-18
4973.15920 8.50421e-18
4976.18920 8.91698e-18
4979.21920 8.60216e-18
4982.24920 8.40217e-18
4985.28930 8.59766e-18
4988.31930 8.33485e-18
4991.34930 8.37767e-18
4994.37930 8.42048e-18
4997.40930 8.46327e-18
5000.44940 8.50603e-18
5003.47940 8.54877e-18
5006.50940 8.59149e-18
5009.53940 8.63420e-18
5012.57950 8.67688e-18
5015.60950 8.71954e-18
5018.63950 8.76217e-18
5021.66950 8.80479e-18
5024.70960 8.84738e-18
5027.73960 8.88996e-18
5030.76960 8.76644e-18
5033.79960 9.02278e-18
5036.82960 9.72106e-18
5039.86970 9.70414e-18
5042.89970 9.68723e-18
5045.92970 9.67034e-18
5048.95970 9.65345e-18
5051.99980 9.63657e-18
5055.02980 9.61971e-18
5058.05980 9.60285e-18
5061.08980 9.58600e-18
5064.11980 9.56917e-18
5067.15990 9.55234e-18
5070.18990 9.53553e-18
5073.21990 9.51873e-18
5076.24990 9.50193e-18
5079.29000 9.57691e-18
5082.32000 9.78137e-18
5085.35000 9.28097e-18
5088.38000 9.20622e-18
5091.41000 9.88810e-18
5094.45010 9.50181e-18
5097.48010 9.98600e-18
5100.51010 9.20086e-18
5103.54010 9.97377e-18
5106.58020 1.00502e-17
5109.61020 9.92828e-18
5112.64020 9.66989e-18
5115.67020 9.74849e-18
5118.70020 9.85604e-18
5121.74030 1.01430e-17
5124.77030 9.80830e-18
5127.80030 1.01635e-17
5130.83030 1.04304e-17
5133.87040 1.05406e-17
5136.90040 9.89085e-18
5139.93040 1.04455e-17
5142.96040 1.07989e-17
5145.99040 1.08826e-17
5149.03050 1.10510e-17
5152.06050 1.09007e-17
5155.09050 1.05165e-17
5158.12050 1.07663e-17
5161.16060 1.10588e-17
5164.19060 1.10414e-17
5167.22060 1.09922e-17
5170.25060 1.09095e-17
5173.28060 1.09894e-17
5176.32070 1.09365e-17
5179.35070 1.16476e-17
5182.38070 1.07280e-17
5185.41070 1.09452e-17
5188.45080 1.09127e-17
5191.48080 1.09546e-17
5194.51080 1.12374e-17
5197.54080 1.11690e-17
5200.57080 1.15753e-17
5203.61090 1.14117e-17
5206.64090 1.15564e-17
5209.67090 1.13068e-17
5212.70090 1.13431e-17
5215.74100 1.15963e-17
5218.77100 1.10914e-17
5221.80100 1.16193e-17
5224.83100 1.21649e-17
5227.86100 1.22846e-17
5230.90110 1.21870e-17
5233.93110 1.19653e-17
5236.96110 1.21929e-17
5239.99110 1.22064e-17
5243.03120 1.22786e-17
5246.06120 1.21540e-17
5249.09120 1.18614e-17
5252.12120 1.31196e-17
5255.15120 1.30366e-17
5258.19130 1.25964e-17
5261.22130 1.25520e-17
5264.25130 1.23716e-17
5267.28130 1.28806e-17
5270.32140 1.28740e-17
5273.35140 1.31050e-17
5276.38140 1.24671e-17
5279.41140 1.24272e-17
5282.44140 1.30684e-17
5285.48150 1.31332e-17
5288.51150 1.31456e-17
5291.54150 1.32276e-17
5294.57150 1.35400e-17
5297.61160 1.35688e-17
5300.64160 1.29545e-17
5303.67160 1.29324e-17
5306.70160 1.33399e-17
5309.73160 1.37561e-17
5312.77170 1.39541e-17
5315.80170 1.38486e-17
5318.83170 1.38721e-17
5321.86170 1.42545e-17
5324.90180 1.38562e-17
5327.93180 1.40455e-17
5330.96180 1.38432e-17
5333.99180 1.38956e-17
5337.02180 1.43044e-17
5340.06190 1.47415e-17
5343.09190 1.43130e-17
5346.12190 1.43045e-17
5349.15190 1.44493e-17
5352.19200 1.44202e-17
5355.22200 1.45105e-17
5358.25200 1.41426e-17
5361.28200 1.43007e-17
5364.31200 1.51010e-17
5367.35210 1.56982e-17
5370.38210 1.55088e-17
5373.41210 1.51538e-17
5376.44210 1.46000e-17
5379.48220 1.53894e-17
5382.51220 1.54800e-17
5385.54220 1.56434e-17
5388.57220 1.52544e-17
5391.60220 1.58086e-17
5394.64230 1.57723e-17
5397.67230 1.56746e-17
5400.70230 1.55832e-17
5403.73230 1.54748e-17
5406.77240 1.56297e-17
5409.80240 1.59564e-17
5412.83240 1.58943e-17
5415.86240 1.52932e-17
5418.89240 1.53024e-17
5421.93250 1.53420e-17
5424.96250 1.54553e-17
5427.99250 1.56327e-17
5431.02250 1.62378e-17
5434.06260 1.58118e-17
5437.09260 1.58759e-17
5440.12260 1.59274e-17
5443.15260 1.60574e-17
5446.18260 1.63270e-17
5449.22270 1.59230e-17
5452.25270 1.57767e-17
5455.28270 1.63044e-17
5458.31270 1.58471e-17
5461.35280 1.62259e-17
5464.38280 1.56764e-17
5467.41280 1.60911e-17
5470.44280 1.62578e-17
5473.47280 1.57124e-17
5476.51290 1.65166e-17
5479.54290 1.63893e-17
5482.57290 1.58639e-17
5485.60290 1.63145e-17
5488.64300 1.58422e-17
5491.67300 1.59223e-17
5494.70300 1.60730e-17
5497.73300 1.65785e-17
5500.76300 1.65001e-17
5503.80310 1.59548e-17
5506.83310 1.63793e-17
5509.86310 1.59940e-17
5512.89310 1.62933e-17
5515.93320 1.62490e-17
5518.96320 1.58413e-17
5521.99320 1.57174e-17
5525.02320 1.57859e-17
5528.05320 1.56294e-17
5531.09330 1.58210e-17
5534.12330 1.60603e-17
5537.15330 1.58457e-17
5540.18330 1.61870e-17
5543.22340 1.63015e-17
5546.25340 1.56962e-17
5549.28340 1.59429e-17
5552.31340 1.55343e-17
5555.34340 1.56531e-17
5558.38350 1.52947e-17
5561.41350 1.53048e-17
5564.44350 1.54705e-17
5567.47350 1.52252e-17
5570.51360 1.53667e-17
5573.54360 1.56425e-17
5576.57360 1.53085e-17
5579.60360 1.63613e-17
5582.63360 1.54769e-17
5585.67370 1.52120e-17
5588.70370 1.48233e-17
5591.73370 1.44545e-17
5594.76370 1.43897e-17
5597.80380 1.43938e-17
5600.83380 1.48757e-17
5603.86380 1.47130e-17
5606.89380 1.43123e-17
5609.92380 1.39435e-17
5612.96390 1.42092e-17
5615.99390 1.45139e-17
5619.02390 1.45795e-17
5622.05390 1.38039e-17
5625.09400 1.43550e-17
5628.12400 1.44658e-17
5631.15400 1.42866e-17
5634.18400 1.45192e-17
5637.21400 1.42399e-17
5640.25410 1.40294e-17
5643.28410 1.39214e-17
5646.31410 1.39273e-17
5649.34410 1.37020e-17
5652.38420 1.37038e-17
5655.41420 1.43859e-17
5658.44420 1.41660e-17
5661.47420 1.37326e-17
5664.50420 1.41519e-17
5667.54430 1.39782e-17
5670.57430 1.38585e-17
5673.60430 1.38853e-17
5676.63430 1.39700e-17
5679.67440 1.42391e-17
5682.70440 1.42897e-17
5685.73440 1.43276e-17
5688.76440 1.40925e-17
5691.79440 1.43007e-17
5694.83450 1.38876e-17
5697.86450 1.44077e-17
5700.89450 1.38022e-17
5703.92450 1.43522e-17
5706.96460 1.40933e-17
5709.99460 1.44529e-17
5713.02460 1.44343e-17
5716.05460 1.44981e-17
5719.08460 1.44084e-17
5722.12470 1.44522e-17
5725.15470 1.47076e-17
5728.18470 1.44456e-17
5731.21470 1.46760e-17
5734.25480 1.45880e-17
5737.28480 1.45053e-17
5740.31480 1.49728e-17
5743.34480 1.48497e-17
5746.37480 1.43975e-17
5749.41490 1.41945e-17
5752.44490 1.51596e-17
5755.47490 1.50398e-17
5758.50490 1.51949e-17
5761.54500 1.51133e-17
5764.57500 1.53152e-17
5767.60500 1.55098e-17
5770.63500 1.51004e-17
5773.66500 1.48337e-17
5776.70510 1.49878e-17
5779.73510 1.53207e-17
5782.76510 1.55112e-17
5785.79510 1.53027e-17
5788.83520 1.56457e-17
5791.86520 1.57333e-17
5794.89520 1.53017e-17
5797.92520 1.51541e-17
5800.95520 1.48885e-17
5803.99530 1.52209e-17
5807.02530 1.50835e-17
5810.05530 1.60409e-17
5813.08530 1.53914e-17
5816.12540 1.57465e-17
5819.15540 1.56430e-17
5822.18540 1.56107e-17
5825.21540 1.59971e-17
5828.24540 1.59273e-17
5831.28550 1.56162e-17
5834.31550 1.54052e-17
5837.34550 1.51078e-17
5840.37550 1.51027e-17
5843.41560 1.56702e-17
5846.44560 1.61618e-17
5849.47560 1.61057e-17
5852.50560 1.59588e-17
5855.53560 1.58172e-17
5858.57570 1.57609e-17
5861.60570 1.55699e-17
5864.63570 1.55896e-17
5867.66570 1.58322e-17
5870.70580 1.58948e-17
5873.73580 1.57353e-17
5876.76580 1.57934e-17
5879.79580 1.54320e-17
5882.83590 1.52480e-17
5885.86590 1.55756e-17
5888.89590 1.57646e-17
5891.92590 1.46752e-17
5894.95590 1.50744e-17
5897.99600 1.58525e-17
5901.02600 1.52841e-17
5904.05600 1.58896e-17
5907.08600 1.58606e-17
5910.11600 1.58317e-17
5913.15610 1.58027e-17
5916.18610 1.57738e-17
5919.21610 1.57449e-17
5922.24610 1.57160e-17
5925.28620 1.56871e-17
5928.31620 1.56582e-17
5931.34620 1.56294e-17
5934.37620 1.56005e-17
5937.40620 1.55717e-17
5940.44630 1.55429e-17
5943.47630 1.55141e-17
5946.50630 1.54853e-17
5949.53630 1.54565e-17
5952.57640 1.54277e-17
5955.60640 1.53989e-17
5958.63640 1.53702e-17
5961.66640 1.53415e-17
5964.70650 1.53127e-17
5967.73650 1.52840e-17
5970.76650 1.55217e-17
5973.79650 1.55513e-17
5976.82650 1.51134e-17
5979.86660 1.52790e-17
5982.89660 1.57725e-17
5985.92660 1.55049e-17
5988.95660 1.52089e-17
