# wavelength flux
3714.20430 1.27993e-18
3716.19400 2.23412e-18
3718.19380 1.31370e-18
3720.19360 2.10253e-18
3722.19340 2.81814e-18
3724.18310 3.08979e-18
3726.18290 2.10167e-18
3728.18270 1.87041e-18
3730.18250 2.07633e-18
3732.17220 2.25113e-18
3734.17200 1.81584e-18
3736.17180 1.71607e-18
3738.17160 1.22470e-18
3740.16130 1.48359e-18
3742.16110 1.07904e-18
3744.16090 9.18314e-19
3746.16070 1.00774e-18
3748.15040 1.06286e-18
3750.15020 1.11796e-18
3752.15000 1.17305e-18
3754.14980 1.22811e-18
3756.14960 1.28315e-18
3758.13930 1.33817e-18
3760.13910 1.39317e-18
3762.13890 1.44815e-18
3764.13870 1.50311e-18
3766.12840 1.55805e-18
3768.12820 1.61296e-18
3770.12800 1.66787e-18
3772.12780 1.72275e-18
3774.11750 1.77761e-18
3776.11730 1.83245e-18
3778.11710 1.88728e-18
3780.11690 1.94208e-18
3782.10660 1.99686e-18
3784.10640 2.05162e-18
3786.10620 2.10638e-18
3788.10600 2.58495e-18
3790.09570 2.49615e-18
3792.09550 1.89229e-18
3794.09530 2.74492e-18
3796.09510 2.26947e-18
3798.08480 1.90474e-18
3800.08460 1.39326e-18
3802.08440 1.67871e-18
3804.08420 2.84537e-18
3806.08400 2.42940e-18
3808.07370 2.67320e-18
3810.07350 3.05288e-18
3812.07330 2.42749e-18
3814.07310 2.18918e-18
3816.06280 2.15437e-18
3818.06260 2.41288e-18
3820.06240 1.84311e-18
3822.06220 2.04428e-18
3824.05190 2.08385e-18
3826.05170 2.59736e-18
3828.05150 2.26781e-18
3830.05130 2.48190e-18
3832.04100 2.33161e-18
3834.04080 2.40086e-18
3836.04060 2.40173e-18
3838.04040 2.15867e-18
3840.03010 2.48447e-18
3842.02990 2.94527e-18
3844.02970 2.49852e-18
3846.02950 3.17062e-18
3848.01920 2.90528e-18
3850.01900 2.55606e-18
3852.01880 2.77005e-18
3854.01860 3.17458e-18
3856.01840 2.48471e-18
3858.00810 2.63278e-18
3860.00790 2.63404e-18
3862.00770 2.82260e-18
3864.00750 2.74499e-18
3865.99720 2.41332e-18
3867.99700 2.28493e-18
3869.99680 2.87930e-18
3871.99660 3.31096e-18
3873.98630 2.97055e-18
3875.98610 3.20844e-18
3877.98590 3.55492e-18
3879.98570 2.71097e-18
3881.97540 2.49614e-18
3883.97520 3.24866e-18
3885.97500 3.30141e-18
3887.97480 3.34532e-18
3889.96450 2.80042e-18
3891.96430 2.81129e-18
3893.96410 2.83225e-18
3895.96390 3.04963e-18
3897.95360 3.01616e-18
3899.95340 2.58368e-18
3901.95320 2.47993e-18
3903.95300 2.94340e-18
3905.94270 2.61803e-18
3907.94250 2.96591e-18
3909.94230 2.65085e-18
3911.94210 3.13588e-18
3913.94190 3.00284e-18
3915.93160 3.22426e-18
3917.93140 2.66069e-18
3919.93120 3.48864e-18
3921.93100 3.28973e-18
3923.92070 3.16708e-18
3925.92050 3.79386e-18
3927.92030 4.36289e-18
3929.92010 4.06382e-18
3931.90980 3.57754e-18
3933.90960 2.47764e-18
3935.90940 2.82849e-18
3937.90920 2.92088e-18
3939.89890 2.86942e-18
3941.89870 3.03440e-18
3943.89850 2.99731e-18
3945.89830 2.94190e-18
3947.88800 3.16700e-18
3949.88780 3.10662e-18
3951.88760 2.98744e-18
3953.88740 2.74138e-18
3955.87710 3.02734e-18
3957.87690 3.18592e-18
3959.87670 3.36198e-18
3961.87650 3.10435e-18
3963.87630 3.17591e-18
3965.86600 2.72839e-18
3967.86580 2.61345e-18
3969.86560 2.76930e-18
3971.86540 2.61316e-18
3973.85510 2.50850e-18
3975.85490 2.76638e-18
3977.85470 3.33064e-18
3979.85450 2.93338e-18
3981.84420 2.74929e-18
3983.84400 2.64455e-18
3985.84380 2.74104e-18
3987.84360 3.13869e-18
3989.83330 2.54363e-18
3991.83310 2.91486e-18
3993.83290 3.08551e-18
3995.83270 2.65088e-18
3997.82240 2.43407e-18
3999.82220 2.72174e-18
4001.82200 2.78542e-18
4003.82180 2.94189e-18
4005.81150 3.16980e-18
4007.81130 3.39958e-18
4009.81110 3.65751e-18
4011.81090 4.02017e-18
4013.80060 3.42325e-18
4015.80040 3.05045e-18
4017.80020 3.12957e-18
4019.80000 3.30854e-18
4021.79980 3.05308e-18
4023.78950 2.98889e-18
4025.78930 3.03682e-18
4027.78910 2.94306e-18
4029.78890 3.23471e-18
4031.77860 2.81324e-18
4033.77840 2.61087e-18
4035.77820 2.87214e-18
4037.77800 2.97464e-18
4039.76770 3.13573e-18
4041.76750 3.19537e-18
4043.76730 2.79595e-18
4045.76710 2.94851e-18
4047.75680 2.79717e-18
4049.75660 2.99560e-18
4051.75640 2.75684e-18
4053.75620 2.71375e-18
4055.74590 2.60741e-18
4057.74570 2.60300e-18
4059.74550 2.46722e-18
4061.74530 2.62878e-18
4063.73500 2.70153e-18
4065.73480 2.51696e-18
4067.73460 2.99236e-18
4069.73440 2.74107e-18
4071.73420 3.07265e-18
4073.72390 3.13666e-18
4075.72370 2.79854e-18
4077.72350 2.88225e-18
4079.72330 3.05511e-18
4081.71300 2.74381e-18
4083.71280 3.20292e-18
4085.71260 3.13778e-18
4087.71240 2.98959e-18
4089.70210 2.71694e-18
4091.70190 2.82801e-18
4093.70170 3.18536e-18
4095.70150 3.09578e-18
4097.69120 3.06278e-18
4099.69100 2.73429e-18
4101.69080 3.14876e-18
4103.69060 2.88042e-18
4105.68030 3.16058e-18
4107.68010 2.82675e-18
4109.67990 2.55252e-18
4111.67970 2.49992e-18
4113.66940 2.82382e-18
4115.66920 2.78453e-18
4117.66900 2.57987e-18
4119.66880 2.65246e-18
4121.65850 2.52171e-18
4123.65830 2.39650e-18
4125.65810 2.38025e-18
4127.65790 2.36282e-18
4129.65770 2.34715e-18
4131.64740 2.29486e-18
4133.64720 2.11989e-18
4135.64700 2.11478e-18
4137.64680 2.49597e-18
4139.63650 2.73393e-18
4141.63630 3.45299e-18
4143.63610 4.24138e-18
4145.63590 4.46000e-18
4147.62560 3.88098e-18
4149.62540 3.46051e-18
4151.62520 3.13724e-18
4153.62500 3.05754e-18
4155.61470 3.23337e-18
4157.61450 2.86915e-18
4159.61430 2.85417e-18
4161.61410 3.28740e-18
4163.60380 2.91176e-18
4165.60360 2.93903e-18
4167.60340 2.85591e-18
4169.60320 3.36715e-18
4171.60300 3.19038e-18
4173.59270 2.91318e-18
4175.59250 3.05233e-18
4177.59230 2.79338e-18
4179.59210 2.96212e-18
4181.58180 2.67313e-18
4183.58160 2.85433e-18
4185.58140 3.17360e-18
4187.58120 3.31757e-18
4189.57090 3.03437e-18
4191.57070 3.12002e-18
4193.57050 3.04338e-18
4195.57030 2.99256e-18
4197.56000 2.92996e-18
4199.55980 3.22154e-18
4201.55960 2.83282e-18
4203.55940 3.19438e-18
4205.54910 3.02565e-18
4207.54890 2.90368e-18
4209.54870 3.12851e-18
4211.54850 3.11808e-18
4213.53820 2.77557e-18
4215.53800 3.03330e-18
4217.53780 3.02642e-18
4219.53760 3.08727e-18
4221.52730 3.12734e-18
4223.52710 3.25564e-18
4225.52690 3.09621e-18
4227.52670 3.26786e-18
4229.52650 3.12564e-18
4231.51620 2.84422e-18
4233.51600 3.24471e-18
4235.51580 3.15881e-18
4237.51560 3.15666e-18
4239.50530 3.15081e-18
4241.50510 3.16060e-18
4243.50490 3.25255e-18
4245.50470 3.07137e-18
4247.49440 3.10207e-18
4249.49420 2.94316e-18
4251.49400 3.42848e-18
4253.49380 3.23870e-18
4255.48350 3.07724e-18
4257.48330 2.92337e-18
4259.48310 3.19268e-18
4261.48290 3.51097e-18
4263.47260 3.11892e-18
4265.47240 3.21122e-18
4267.47220 3.31615e-18
4269.47200 3.42057e-18
4271.46170 3.18282e-18
4273.46150 3.22063e-18
4275.46130 3.21525e-18
4277.46110 3.32809e-18
4279.46090 3.18001e-18
4281.45060 3.16875e-18
4283.45040 3.25552e-18
4285.45020 3.28845e-18
4287.45000 3.23700e-18
4289.43970 3.49669e-18
4291.43950 3.44706e-18
4293.43930 3.34370e-18
4295.43910 3.29326e-18
4297.42880 3.45339e-18
4299.42860 3.57625e-18
4301.42840 3.15229e-18
4303.42820 3.42114e-18
4305.41790 3.35536e-18
4307.41770 3.87063e-18
4309.41750 3.68223e-18
4311.41730 3.62811e-18
4313.40700 3.55608e-18
4315.40680 3.55997e-18
4317.40660 3.19390e-18
4319.40640 3.58505e-18
4321.39610 3.72352e-18
4323.39590 3.89824e-18
4325.39570 3.79918e-18
4327.39550 3.51346e-18
4329.38520 3.74057e-18
4331.38500 3.68629e-18
4333.38480 3.65124e-18
4335.38460 3.78114e-18
4337.38440 3.47672e-18
4339.37410 3.78454e-18
4341.37390 3.66148e-18
4343.37370 3.86728e-18
4345.37350 4.02709e-18
4347.36320 3.78911e-18
4349.36300 3.82544e-18
4351.36280 3.88676e-18
4353.36260 3.85904e-18
4355.35230 4.04322e-18
4357.35210 3.92440e-18
4359.35190 3.86360e-18
4361.35170 3.67370e-18
4363.34140 3.67741e-18
4365.34120 4.08999e-18
4367.34100 3.78167e-18
4369.34080 4.11268e-18
4371.33050 4.06650e-18
4373.33030 4.20528e-18
4375.33010 4.04311e-18
4377.32990 4.07121e-18
4379.32970 4.09932e-18
4381.31940 4.12741e-18
4383.31920 4.15550e-18
4385.31900 4.18357e-18
4387.31880 4.21164e-18
4389.30850 4.23969e-18
4391.30830 4.26774e-18
4393.30810 4.29577e-18
4395.30790 4.32380e-18
4397.29760 4.35181e-18
4399.29740 4.37983e-18
4401.29720 4.40783e-18
4403.29700 4.43581e-18
4405.28670 4.46379e-18
4407.28650 4.49176e-18
4409.28630 4.51972e-18
4411.28610 4.54767e-18
4413.27580 4.57561e-18
4415.27560 4.60354e-18
4417.27540 4.63145e-18
4419.27520 4.65937e-18
4421.26490 4.68727e-18
4423.26470 4.71516e-18
4425.26450 4.74304e-18
4427.26430 4.77091e-18
4429.25400 4.79878e-18
4431.25380 4.82663e-18
4433.25360 4.85447e-18
4435.25340 4.88230e-18
4437.25320 4.91013e-18
4439.24290 4.70563e-18
4441.24270 4.83474e-18
4443.24250 4.78173e-18
4445.24230 5.11704e-18
4447.23200 5.10906e-18
4449.23180 5.01752e-18
4451.23160 5.10458e-18
4453.23140 5.04606e-18
4455.22110 5.17509e-18
4457.22090 5.23579e-18
4459.22070 4.92396e-18
4461.22050 5.19783e-18
4463.21020 5.20118e-18
4465.21000 4.93987e-18
4467.20980 4.95824e-18
4469.20960 4.83865e-18
4471.19930 4.86007e-18
4473.19910 5.09870e-18
4475.19890 5.13930e-18
4477.19870 5.11680e-18
4479.18840 5.20354e-18
4481.18820 5.16766e-18
4483.18800 5.17308e-18
4485.18780 5.38193e-18
4487.17750 5.20386e-18
4489.17730 5.29203e-18
4491.17710 5.54346e-18
4493.17690 5.48772e-18
4495.17670 5.37525e-18
4497.16640 5.47881e-18
4499.16620 5.45531e-18
4501.16600 5.32943e-18
4503.16580 5.44969e-18
4505.15550 5.04327e-18
4507.15530 5.18031e-18
4509.15510 5.39313e-18
4511.15490 5.17899e-18
4513.14460 5.30552e-18
4515.14440 5.58579e-18
4517.14420 5.23520e-18
4519.14400 5.37887e-18
4521.13370 5.39655e-18
4523.13350 5.37937e-18
4525.13330 5.50959e-18
4527.13310 5.57607e-18
4529.12280 5.33154e-18
4531.12260 5.18764e-18
4533.12240 5.92686e-18
4535.12220 5.54972e-18
4537.11190 5.62762e-18
4539.11170 5.65583e-18
4541.11150 5.64299e-18
4543.11130 5.61714e-18
4545.11110 5.30727e-18
4547.10080 5.53650e-18
4549.10060 5.64873e-18
4551.10040 5.49912e-18
4553.10020 5.73387e-18
4555.08990 5.60077e-18
4557.08970 5.63607e-18
4559.08950 5.71336e-18
4561.08930 5.41767e-18
4563.07900 5.41884e-18
4565.07880 5.42800e-18
4567.07860 5.70626e-18
4569.07840 5.79119e-18
4571.06810 5.55178e-18
4573.06790 5.35619e-18
4575.06770 5.56855e-18
4577.06750 5.72461e-18
4579.05720 5.72751e-18
4581.05700 5.68783e-18
4583.05680 5.62107e-18
4585.05660 5.66219e-18
4587.04630 5.69735e-18
4589.04610 5.74049e-18
4591.04590 5.35259e-18
4593.04570 5.54995e-18
4595.03540 5.39820e-18
4597.03520 5.59752e-18
4599.03500 5.60197e-18
4601.03480 5.46451e-18
4603.03460 5.44324e-18
4605.02430 5.38771e-18
4607.02410 5.42510e-18
4609.02390 5.33182e-18
4611.02370 5.45975e-18
4613.01340 5.38843e-18
4615.01320 5.47496e-18
4617.01300 5.37419e-18
4619.01280 5.38722e-18
4621.00250 5.53906e-18
4623.00230 5.40824e-18
4625.00210 5.54094e-18
4627.00190 5.38966e-18
4628.99160 5.19972e-18
4630.99140 5.29103e-18
4632.99120 5.30396e-18
4634.99100 5.20563e-18
4636.98070 5.37811e-18
4638.98050 5.56745e-18
4640.98030 5.24478e-18
4642.98010 5.40519e-18
4644.97990 5.20431e-18
4646.96960 5.33812e-18
4648.96940 5.40257e-18
4650.96920 5.07614e-18
4652.96900 5.16203e-18
4654.95870 5.20869e-18
4656.95850 4.98616e-18
4658.95830 5.10568e-18
4660.95810 5.34428e-18
4662.94780 5.17055e-18
4664.94760 5.34452e-18
4666.94740 5.19919e-18
4668.94720 5.13569e-18
4670.93690 5.29562e-18
4672.93670 5.48905e-18
4674.93650 5.29067e-18
4676.93630 5.08123e-18
4678.92600 5.22368e-18
4680.92580 5.17234e-18
4682.92560 5.08626e-18
4684.92540 5.29724e-18
4686.91510 5.27711e-18
4688.91490 5.04964e-18
4690.91470 5.12678e-18
4692.91450 5.20241e-18
4694.90420 5.22783e-18
4696.90400 5.14834e-18
4698.90380 5.30795e-18
4700.90360 5.02700e-18
4702.90340 5.10945e-18
4704.89310 4.96091e-18
4706.89290 5.06562e-18
4708.89270 5.10222e-18
4710.89250 5.13327e-18
4712.88220 5.17857e-18
4714.88200 5.25284e-18
4716.88180 5.30150e-18
4718.88160 5.16834e-18
4720.87130 5.07528e-18
4722.87110 5.18191e-18
4724.87090 5.13283e-18
4726.87070 5.12222e-18
4728.86040 5.32199e-18
4730.86020 5.38401e-18
4732.86000 5.41346e-18
4734.85980 5.23750e-18
4736.84950 5.13591e-18
4738.84930 5.35590e-18
4740.84910 5.19085e-18
4742.84890 5.15147e-18
4744.83860 5.31217e-18
4746.83840 5.26952e-18
4748.83820 5.29905e-18
4750.83800 5.44024e-18
4752.83780 5.57238e-18
4754.82750 5.72544e-18
4756.82730 5.50155e-18
4758.82710 5.26531e-18
4760.82690 5.53804e-18
4762.81660 5.32189e-18
4764.81640 5.48290e-18
4766.81620 5.34647e-18
4768.81600 5.33363e-18
4770.80570 5.24080e-18
4772.80550 5.36573e-18
4774.80530 5.36685e-18
4776.80510 5.31613e-18
4778.79480 5.34334e-18
4780.79460 5.36141e-18
4782.79440 5.41028e-18
4784.79420 5.11930e-18
4786.78390 5.16706e-18
4788.78370 5.30050e-18
4790.78350 5.29226e-18
4792.78330 5.15213e-18
4794.77300 5.04197e-18
4796.77280 5.10627e-18
4798.77260 4.94014e-18
4800.77240 5.08484e-18
4802.76210 5.01437e-18
4804.76190 4.95197e-18
4806.76170 5.01741e-18
4808.76150 5.02718e-18
4810.76130 5.14099e-18
4812.75100 5.03082e-18
4814.75080 4.83114e-18
4816.75060 4.85062e-18
4818.75040 5.01682e-18
4820.74010 5.06365e-18
4822.73990 5.03563e-18
4824.73970 4.85842e-18
4826.73950 4.93899e-18
4828.72920 5.07226e-18
4830.72900 4.85505e-18
4832.72880 5.04300e-18
4834.72860 5.12554e-18
4836.71830 5.18353e-18
4838.71810 5.18912e-18
4840.71790 5.30111e-18
4842.71770 5.06262e-18
4844.70740 4.99756e-18
4846.70720 5.17936e-18
4848.70700 5.19552e-18
4850.70680 5.30086e-18
4852.70660 5.36035e-18
4854.69630 5.25536e-18
4856.69610 5.20104e-18
4858.69590 5.41353e-18
4860.69570 5.03983e-18
4862.68540 4.97270e-18
4864.68520 5.17445e-18
4866.68500 5.32977e-18
4868.68480 5.31634e-18
4870.67450 5.37883e-18
4872.67430 5.48264e-18
4874.67410 5.52823e-18
4876.67390 5.54573e-18
4878.66360 5.63672e-18
4880.66340 5.54770e-18
4882.66320 5.62464e-18
4884.66300 5.64507e-18
4886.65270 5.67456e-18
4888.65250 5.65704e-18
4890.65230 5.62098e-18
4892.65210 5.63846e-18
4894.64180 5.65593e-18
4896.64160 5.67339e-18
4898.64140 5.69085e-18
4900.64120 5.70830e-18
4902.63090 5.72574e-18
4904.63070 5.74318e-18
4906.63050 5.76061e-18
4908.63030 5.77804e-18
4910.63010 5.79546e-18
4912.61980 5.81288e-18
4914.61960 5.83028e-18
4916.61940 5.84768e-18
4918.61920 5.86508e-18
4920.60890 5.88247e-18
4922.60870 5.89985e-18
4924.60850 5.91724e-18
4926.60830 5.93461e-18
4928.59800 5.95197e-18
4930.59780 6.13525e-18
4932.59760 5.79331e-18
4934.59740 6.02449e-18
4936.58710 5.98496e-18
4938.58690 6.07883e-18
4940.58670 6.03108e-18
4942.58650 5.87446e-18
4944.57620 5.87455e-18
4946.57600 5.82535e-18
4948.57580 6.02500e-18
4950.57560 5.80462e-18
4952.57540 5.90061e-18
4954.56510 6.01092e-18
4956.56490 6.13407e-18
4958.56470 6.00024e-18
4960.56450 5.90085e-18
4962.55420 5.94707e-18
4964.55400 5.79313e-18
4966.55380 5.93542e-18
4968.55360 5.99993e-18
4970.54330 6.01081e-18
4972.54310 6.17313e-18
4974.54290 6.31370e-18
4976.54270 6.09460e-18
4978.53240 5.90518e-18
4980.53220 6.01482e-18
4982.53200 6.36596e-18
4984.53180 6.34631e-18
4986.52150 6.38824e-18
4988.52130 6.26800e-18
4990.52110 6.28467e-18
4992.52090 6.30135e-18
4994.51060 6.31802e-18
4996.51040 6.33468e-18
4998.51020 6.35134e-18
5000.51000 6.36799e-18
5002.49970 6.38464e-18
5004.49950 6.40129e-18
5006.49930 6.41792e-18
5008.49910 6.43455e-18
5010.48880 6.45117e-18
5012.48860 6.46780e-18
5014.48840 6.48441e-18
5016.48820 6.50102e-18
5018.48800 6.51762e-18
5020.47770 6.53423e-18
5022.47750 6.55082e-18
5024.47730 6.56741e-18
5026.47710 6.58399e-18
5028.46680 6.60057e-18
5030.46660 6.68204e-18
5032.46640 6.51590e-18
5034.46620 6.60672e-18
5036.45590 6.71216e-18
5038.45570 6.89945e-18
5040.45550 6.92941e-18
5042.45530 6.95935e-18
5044.44500 6.98930e-18
5046.44480 7.01923e-18
5048.44460 7.04915e-18
5050.44440 7.07906e-18
5052.43410 7.10896e-18
5054.43390 7.13885e-18
5056.43370 7.16874e-18
5058.43350 7.19860e-18
5060.43330 7.22847e-18
5062.42300 7.25832e-18
5064.42280 7.28817e-18
5066.42260 7.31800e-18
5068.42240 7.34782e-18
5070.41210 7.37764e-18
5072.41190 7.40745e-18
5074.41170 7.43723e-18
5076.41150 7.46703e-18
5078.40120 7.46441e-18
5080.40100 7.29465e-18
5082.40080 7.64412e-18
5084.40060 7.71801e-18
5086.39030 7.65498e-18
5088.39010 7.57994e-18
5090.38990 7.68456e-18
5092.38970 7.86754e-18
5094.37940 8.02585e-18
5096.37920 8.06803e-18
5098.37900 7.80745e-18
5100.37880 7.89551e-18
5102.36850 8.10735e-18
5104.36830 8.14924e-18
5106.36810 7.91966e-18
5108.36790 8.00960e-18
5110.35760 8.15189e-18
5112.35740 8.08906e-18
5114.35720 8.12980e-18
5116.35700 8.07613e-18
5118.35680 8.07769e-18
5120.34650 8.40424e-18
5122.34630 8.23218e-18
5124.34610 8.24556e-18
5126.34590 8.56497e-18
5128.33560 8.39765e-18
5130.33540 8.24984e-18
5132.33520 8.49839e-18
5134.33500 8.53600e-18
5136.32470 8.38336e-18
5138.32450 8.50223e-18
5140.32430 8.57495e-18
5142.32410 8.66334e-18
5144.31380 8.75553e-18
5146.31360 8.84243e-18
5148.31340 8.55435e-18
5150.31320 8.60743e-18
5152.30290 8.90397e-18
5154.30270 8.87570e-18
5156.30250 8.79972e-18
5158.30230 8.89566e-18
5160.30210 9.00687e-18
5162.29180 8.96089e-18
5164.29160 8.96694e-18
5166.29140 9.05089e-18
5168.29120 8.96749e-18
5170.28090 8.96128e-18
5172.28070 9.10603e-18
5174.28050 9.12950e-18
5176.28030 9.04179e-18
5178.27000 9.04807e-18
5180.26980 9.17945e-18
5182.26960 9.19330e-18
5184.26940 9.15024e-18
5186.25910 9.23695e-18
5188.25890 9.45860e-18
5190.25870 9.42774e-18
5192.25850 9.45467e-18
5194.24820 9.27664e-18
5196.24800 9.13796e-18
5198.24780 9.19501e-18
5200.24760 9.34210e-18
5202.23730 9.28524e-18
5204.23710 9.47217e-18
5206.23690 9.30012e-18
5208.23670 9.42388e-18
5210.22640 9.51763e-18
5212.22620 9.46850e-18
5214.22600 9.59436e-18
5216.22580 9.68151e-18
5218.22560 9.66025e-18
5220.21530 9.80247e-18
5222.21510 9.90865e-18
5224.21490 9.88888e-18
5226.21470 9.83100e-18
5228.20440 9.98846e-18
5230.20420 1.01524e-17
5232.20400 9.91449e-18
5234.20380 9.92834e-18
5236.19350 1.00299e-17
5238.19330 1.02480e-17
5240.19310 1.03194e-17
5242.19290 1.04354e-17
5244.18260 1.05462e-17
5246.18240 1.03704e-17
5248.18220 1.05128e-17
5250.18200 1.07370e-17
5252.17170 1.06864e-17
5254.17150 1.05441e-17
5256.17130 1.05591e-17
5258.17110 1.05486e-17
5260.16080 1.04825e-17
5262.16060 1.06981e-17
5264.16040 1.07003e-17
5266.16020 1.06801e-17
5268.16000 1.07645e-17
5270.14970 1.08440e-17
5272.14950 1.11103e-17
5274.14930 1.09949e-17
5276.14910 1.10614e-17
5278.13880 1.09885e-17
5280.13860 1.11455e-17
5282.13840 1.12337e-17
5284.13820 1.15425e-17
5286.12790 1.12789e-17
5288.12770 1.14244e-17
5290.12750 1.13964e-17
5292.12730 1.14328e-17
5294.11700 1.13003e-17
5296.11680 1.13338e-17
5298.11660 1.17321e-17
5300.11640 1.20435e-17
5302.10610 1.19185e-17
5304.10590 1.21196e-17
5306.10570 1.22419e-17
5308.10550 1.20786e-17
5310.09520 1.22040e-17
5312.09500 1.24526e-17
5314.09480 1.23450e-17
5316.09460 1.23452e-17
5318.08430 1.24518e-17
5320.08410 1.25598e-17
5322.08390 1.26081e-17
5324.08370 1.27237e-17
5326.08350 1.27197e-17
5328.07320 1.28739e-17
5330.07300 1.30036e-17
5332.07280 1.29449e-17
5334.07260 1.28564e-17
5336.06230 1.30582e-17
5338.06210 1.31350e-17
5340.06190 1.30489e-17
5342.06170 1.32330e-17
5344.05140 1.31316e-17
5346.05120 1.31019e-17
5348.05100 1.35139e-17
5350.05080 1.34382e-17
5352.04050 1.34305e-17
5354.04030 1.35776e-17
5356.04010 1.36150e-17
5358.03990 1.38156e-17
5360.02960 1.35585e-17
5362.02940 1.39666e-17
5364.02920 1.41437e-17
5366.02900 1.41566e-17
5368.01870 1.38826e-17
5370.01850 1.40147e-17
5372.01830 1.39396e-17
5374.01810 1.39830e-17
5376.00780 1.40777e-17
5378.00760 1.42185e-17
5380.00740 1.43143e-17
5382.00720 1.43558e-17
5384.00700 1.43294e-17
5385.99670 1.45243e-17
5387.99650 1.42235e-17
5389.99630 1.41429e-17
5391.99610 1.42012e-17
5393.98580 1.44050e-17
5395.98560 1.44115e-17
5397.98540 1.44959e-17
5399.98520 1.47339e-17
5401.97490 1.43812e-17
5403.97470 1.45503e-17
5405.97450 1.46849e-17
5407.97430 1.46059e-17
5409.96400 1.47443e-17
5411.96380 1.48034e-17
5413.96360 1.44853e-17
5415.96340 1.46042e-17
5417.95310 1.45194e-17
5419.95290 1.47669e-17
5421.95270 1.48375e-17
5423.95250 1.46289e-17
5425.95230 1.44803e-17
5427.94200 1.49446e-17
5429.94180 1.48966e-17
5431.94160 1.48257e-17
5433.94140 1.47157e-17
5435.93110 1.48046e-17
5437.93090 1.51980e-17
5439.93070 1.49692e-17
5441.93050 1.47616e-17
5443.92020 1.49190e-17
5445.92000 1.52002e-17
