# wavelength flux
3800.00380 9.77581e-18
3803.04390 1.00100e-17
3806.08400 1.00610e-17
3809.12410 1.04402e-17
3812.16420 1.03971e-17
3815.20430 9.60068e-18
3818.24440 9.23395e-18
3821.29460 9.54870e-18
3824.33470 9.58024e-18
3827.37480 9.10534e-18
3830.41490 9.79992e-18
3833.45500 1.11540e-17
3836.49510 1.09777e-17
3839.53520 1.00939e-17
3842.57530 9.21217e-18
3845.62550 9.59956e-18
3848.66560 1.02257e-17
3851.70570 1.04883e-17
3854.74580 1.04231e-17
3857.78590 1.02066e-17
3860.82600 9.72342e-18
3863.86610 9.82650e-18
3866.90620 9.29719e-18
3869.95640 9.69364e-18
3872.99650 1.06449e-17
3876.03660 1.07385e-17
3879.07670 9.99776e-18
3882.11680 9.46938e-18
3885.15690 9.64139e-18
3888.19700 1.02860e-17
3891.24720 1.01874e-17
3894.28730 1.05141e-17
3897.32740 1.01303e-17
3900.36750 9.48363e-18
3903.40760 9.99380e-18
3906.44770 1.04878e-17
3909.48780 1.05649e-17
3912.52790 1.02214e-17
3915.57810 9.48877e-18
3918.61820 1.04221e-17
3921.65830 1.05683e-17
3924.69840 1.04897e-17
3927.73850 1.19920e-17
3930.77860 1.14750e-17
3933.81870 9.47241e-18
3936.85880 9.90578e-18
3939.90900 9.54814e-18
3942.94910 9.72428e-18
3945.98920 9.89281e-18
3949.02930 9.91218e-18
3952.06940 1.03081e-17
3955.10950 1.00450e-17
3958.14960 1.06383e-17
3961.19980 1.00197e-17
3964.23990 9.70230e-18
3967.28000 9.08031e-18
3970.32010 9.06913e-18
3973.36020 8.58664e-18
3976.40030 9.28671e-18
3979.44040 1.03819e-17
3982.48050 1.00813e-17
3985.53070 9.78373e-18
3988.57080 1.03085e-17
3991.61090 9.72374e-18
3994.65100 1.04697e-17
3997.69110 9.25024e-18
4000.73120 9.73123e-18
4003.77130 9.64144e-18
4006.81140 1.00326e-17
4009.86160 1.16034e-17
4012.90170 1.14756e-17
4015.94180 1.02445e-17
4018.98190 9.64989e-18
4022.02200 9.88732e-18
4025.06210 9.91620e-18
4028.10220 1.08560e-17
4031.14230 1.11034e-17
4034.19250 1.05429e-17
4037.23260 1.06319e-17
4040.27270 1.06137e-17
4043.31280 9.84567e-18
4046.35290 1.07158e-17
4049.39300 1.03616e-17
4052.43310 1.03985e-17
4055.48330 1.08879e-17
4058.52340 1.05799e-17
4061.56350 1.06718e-17
4064.60360 1.09138e-17
4067.64370 1.07111e-17
4070.68380 1.12400e-17
4073.72390 1.10545e-17
4076.76400 1.10182e-17
4079.81420 1.10844e-17
4082.85430 1.10935e-17
4085.89440 1.07642e-17
4088.93450 1.13742e-17
4091.97460 1.13488e-17
4095.01470 1.10024e-17
4098.05480 1.08473e-17
4101.09490 1.07114e-17
4104.14510 1.09887e-17
4107.18520 1.13467e-17
4110.22530 1.13821e-17
4113.26540 1.18168e-17
4116.30550 1.12456e-17
4119.34560 1.12489e-17
4122.38570 1.15587e-17
4125.42580 1.13376e-17
4128.47600 1.10447e-17
4131.51610 1.10768e-17
4134.55620 1.11031e-17
4137.59630 1.11008e-17
4140.63640 1.22395e-17
4143.67650 1.45027e-17
4146.71660 1.34915e-17
4149.76680 1.13937e-17
4152.80690 1.08662e-17
4155.84700 1.10354e-17
4158.88710 1.14219e-17
4161.92720 1.13909e-17
4164.96730 1.11281e-17
4168.00740 1.09935e-17
4171.04750 1.11527e-17
4174.09770 1.13244e-17
4177.13780 1.13485e-17
4180.17790 1.16610e-17
4183.21800 1.12464e-17
4186.25810 1.11201e-17
4189.29820 1.08200e-17
4192.33830 1.16448e-17
4195.37840 1.10791e-17
4198.42860 1.07529e-17
4201.46870 1.15039e-17
4204.50880 1.13493e-17
4207.54890 1.07806e-17
4210.58900 1.07536e-17
4213.62910 1.11298e-17
4216.66920 1.03372e-17
4219.71940 1.14615e-17
4222.75950 1.09152e-17
4225.79960 1.14584e-17
4228.83970 1.09779e-17
4231.87980 1.14713e-17
4234.91990 1.09237e-17
4237.96000 1.13594e-17
4241.00010 1.13692e-17
4244.05030 1.11180e-17
4247.09040 1.20826e-17
4250.13050 1.23794e-17
4253.17060 1.19905e-17
4256.21070 1.20662e-17
4259.25080 1.17743e-17
4262.29090 1.22594e-17
4265.33100 1.21295e-17
4268.38120 1.19251e-17
4271.42130 1.19081e-17
4274.46140 1.24892e-17
4277.50150 1.17141e-17
4280.54160 1.17571e-17
4283.58170 1.20576e-17
4286.62180 1.18624e-17
4289.67200 1.16974e-17
4292.71210 1.17964e-17
4295.75220 1.19648e-17
4298.79230 1.22085e-17
4301.83240 1.12133e-17
4304.87250 1.19636e-17
4307.91260 1.23240e-17
4310.95270 1.23277e-17
4314.00290 1.22870e-17
4317.04300 1.25562e-17
4320.08310 1.24452e-17
4323.12320 1.22796e-17
4326.16330 1.20597e-17
4329.20340 1.21721e-17
4332.24350 1.25085e-17
4335.28360 1.24316e-17
4338.33380 1.24684e-17
4341.37390 1.22826e-17
4344.41400 1.23327e-17
4347.45410 1.28136e-17
4350.49420 1.22927e-17
4353.53430 1.26154e-17
4356.57440 1.27096e-17
4359.62460 1.28217e-17
4362.66470 1.31245e-17
4365.70480 1.33283e-17
4368.74490 1.27867e-17
4371.78500 1.36404e-17
4374.82510 1.32837e-17
4377.86520 1.33253e-17
4380.90530 1.33670e-17
4383.95550 1.34086e-17
4386.99560 1.34501e-17
4390.03570 1.34917e-17
4393.07580 1.35332e-17
4396.11590 1.35747e-17
4399.15600 1.36162e-17
4402.19610 1.36576e-17
4405.23620 1.36991e-17
4408.28640 1.37405e-17
4411.32650 1.37818e-17
4414.36660 1.38232e-17
4417.40670 1.38645e-17
4420.44680 1.39058e-17
4423.48690 1.39471e-17
4426.52700 1.39883e-17
4429.56710 1.40295e-17
4432.61730 1.40707e-17
4435.65740 1.41119e-17
4438.69750 1.41530e-17
4441.73760 1.44428e-17
4444.77770 1.40236e-17
4447.81780 1.40124e-17
4450.85790 1.40131e-17
4453.90810 1.33708e-17
4456.94820 1.37574e-17
4459.98830 1.41451e-17
4463.02840 1.42175e-17
4466.06850 1.38086e-17
4469.10860 1.34324e-17
4472.14870 1.32850e-17
4475.18880 1.36039e-17
4478.23900 1.40125e-17
4481.27910 1.38730e-17
4484.31920 1.31792e-17
4487.35930 1.38426e-17
4490.39940 1.37436e-17
4493.43950 1.40546e-17
4496.47960 1.45157e-17
4499.51970 1.39756e-17
4502.56990 1.42315e-17
4505.61000 1.43051e-17
4508.65010 1.41112e-17
4511.69020 1.40250e-17
4514.73030 1.43328e-17
4517.77040 1.45747e-17
4520.81050 1.45979e-17
4523.85060 1.39442e-17
4526.90080 1.45320e-17
4529.94090 1.45122e-17
4532.98100 1.38397e-17
4536.02110 1.44708e-17
4539.06120 1.47229e-17
4542.10130 1.47617e-17
4545.14140 1.41911e-17
4548.19160 1.45302e-17
4551.23170 1.45752e-17
4554.27180 1.45582e-17
4557.31190 1.48789e-17
4560.35200 1.48103e-17
4563.39210 1.50838e-17
4566.43220 1.51298e-17
4569.47230 1.47709e-17
4572.52250 1.49556e-17
4575.56260 1.46993e-17
4578.60270 1.49539e-17
4581.64280 1.51194e-17
4584.68290 1.48543e-17
4587.72300 1.48755e-17
4590.76310 1.46913e-17
4593.80320 1.49394e-17
4596.85340 1.44547e-17
4599.89350 1.42072e-17
4602.93360 1.43516e-17
4605.97370 1.40521e-17
4609.01380 1.43717e-17
4612.05390 1.46124e-17
4615.09400 1.45559e-17
4618.14420 1.41319e-17
4621.18430 1.39997e-17
4624.22440 1.37974e-17
4627.26450 1.41912e-17
4630.30460 1.37793e-17
4633.34470 1.36492e-17
4636.38480 1.36901e-17
4639.42490 1.37294e-17
4642.47510 1.37049e-17
4645.51520 1.37714e-17
4648.55530 1.38083e-17
4651.59540 1.35521e-17
4654.63550 1.37399e-17
4657.67560 1.35391e-17
4660.71570 1.39783e-17
4663.75580 1.38147e-17
4666.80600 1.37688e-17
4669.84610 1.38766e-17
4672.88620 1.36149e-17
4675.92630 1.38897e-17
4678.96640 1.39710e-17
4682.00650 1.38345e-17
4685.04660 1.34046e-17
4688.09680 1.31741e-17
4691.13690 1.37401e-17
4694.17700 1.37006e-17
4697.21710 1.36849e-17
4700.25720 1.32208e-17
4703.29730 1.30498e-17
4706.33740 1.34686e-17
4709.37750 1.37665e-17
4712.42770 1.33296e-17
4715.46780 1.36690e-17
4718.50790 1.37723e-17
4721.54800 1.34744e-17
4724.58810 1.30840e-17
4727.62820 1.34626e-17
4730.66830 1.35590e-17
4733.70840 1.35261e-17
4736.75860 1.31290e-17
4739.79870 1.35126e-17
4742.83880 1.34793e-17
4745.87890 1.35076e-17
4748.91900 1.30151e-17
4751.95910 1.31680e-17
4754.99920 1.30254e-17
4758.04940 1.28954e-17
4761.08950 1.30468e-17
4764.12960 1.29262e-17
4767.16970 1.29407e-17
4770.20980 1.28577e-17
4773.24990 1.29040e-17
4776.29000 1.27113e-17
4779.33010 1.25747e-17
4782.38030 1.26874e-17
4785.42040 1.26245e-17
4788.46050 1.27182e-17
4791.50060 1.25186e-17
4794.54070 1.22616e-17
4797.58080 1.22305e-17
4800.62090 1.22072e-17
4803.66100 1.26694e-17
4806.71120 1.27465e-17
4809.75130 1.23289e-17
4812.79140 1.26823e-17
4815.83150 1.28648e-17
4818.87160 1.31407e-17
4821.91170 1.27063e-17
4824.95180 1.29371e-17
4827.99190 1.28346e-17
4831.04210 1.25835e-17
4834.08220 1.30166e-17
4837.12230 1.32721e-17
4840.16240 1.33609e-17
4843.20250 1.31750e-17
4846.24260 1.32602e-17
4849.28270 1.32103e-17
4852.33290 1.34304e-17
4855.37300 1.31701e-17
4858.41310 1.30436e-17
4861.45320 1.35509e-17
4864.49330 1.33380e-17
4867.53340 1.32266e-17
4870.57350 1.33000e-17
4873.61360 1.34389e-17
4876.66380 1.35331e-17
4879.70390 1.31829e-17
4882.74400 1.32264e-17
4885.78410 1.35091e-17
4888.82420 1.35979e-17
4891.86430 1.35664e-17
4894.90440 1.35349e-17
4897.94450 1.35034e-17
4900.99470 1.34720e-17
4904.03480 1.34405e-17
4907.07490 1.34091e-17
4910.11500 1.33777e-17
4913.15510 1.33463e-17
4916.19520 1.33149e-17
4919.23530 1.32836e-17
4922.27540 1.32522e-17
4925.32560 1.32209e-17
4928.36570 1.31896e-17
4931.40580 1.36747e-17
4934.44590 1.34350e-17
4937.48600 1.34450e-17
4940.52610 1.37650e-17
4943.56620 1.36710e-17
4946.61640 1.38630e-17
4949.65650 1.39885e-17
4952.69660 1.39056e-17
4955.73670 1.43375e-17
4958.77680 1.43188e-17
4961.81690 1.41247e-17
4964.85700 1.43104e-17
4967.89710 1.46518e-17
4970.94730 1.49790e-17
4973.98740 1.50598e-17
4977.02750 1.47084e-17
4980.06760 1.53207e-17
4983.10770 1.50310e-17
4986.14780 1.51720e-17
4989.18790 1.52240e-17
4992.22800 1.53597e-17
4995.27820 1.54954e-17
4998.31830 1.56309e-17
5001.35840 1.57664e-17
5004.39850 1.59018e-17
5007.43860 1.60372e-17
5010.47870 1.61725e-17
5013.51880 1.63077e-17
5016.56900 1.64428e-17
5019.60910 1.65779e-17
5022.64920 1.67129e-17
5025.68930 1.68478e-17
5028.72940 1.69827e-17
5031.76950 1.69646e-17
5034.80960 1.72392e-17
5037.84970 1.74481e-17
5040.89990 1.75411e-17
5043.94000 1.76339e-17
5046.98010 1.77268e-17
5050.02020 1.78195e-17
5053.06030 1.79123e-17
5056.10040 1.80050e-17
5059.14050 1.80976e-17
5062.18060 1.81902e-17
5065.23080 1.82828e-17
5068.27090 1.83753e-17
5071.31100 1.84678e-17
5074.35110 1.85602e-17
5077.39120 1.86526e-17
5080.43130 1.89363e-17
5083.47140 1.87649e-17
5086.52160 1.87295e-17
5089.56170 1.86577e-17
5092.60180 1.88181e-17
5095.64190 1.88637e-17
5098.68200 1.88838e-17
5101.72210 1.90622e-17
5104.76220 1.92908e-17
5107.80230 1.92879e-17
5110.85250 1.96516e-17
5113.89260 1.96792e-17
5116.93270 1.93290e-17
5119.97280 1.94428e-17
5123.01290 2.01784e-17
5126.05300 1.98524e-17
5129.09310 1.98732e-17
5132.13320 1.98466e-17
5135.18340 2.00825e-17
5138.22350 2.03697e-17
5141.26360 2.02294e-17
5144.30370 2.03818e-17
5147.34380 2.01548e-17
5150.38390 2.04346e-17
5153.42400 2.06069e-17
5156.46410 2.04613e-17
5159.51430 2.04854e-17
5162.55440 2.09052e-17
5165.59450 2.08439e-17
5168.63460 2.05689e-17
5171.67470 2.08762e-17
5174.71480 2.09363e-17
5177.75490 2.10952e-17
5180.80510 2.10005e-17
5183.84520 2.14637e-17
5186.88530 2.14298e-17
5189.92540 2.15759e-17
5192.96550 2.18173e-17
5196.00560 2.12209e-17
5199.04570 2.16394e-17
5202.08580 2.17026e-17
5205.13600 2.13409e-17
5208.17610 2.17696e-17
5211.21620 2.14268e-17
5214.25630 2.16427e-17
5217.29640 2.16342e-17
5220.33650 2.15653e-17
5223.37660 2.16582e-17
5226.41670 2.15241e-17
5229.46690 2.19405e-17
5232.50700 2.20221e-17
5235.54710 2.20174e-17
5238.58720 2.18295e-17
5241.62730 2.22083e-17
5244.66740 2.20275e-17
5247.70750 2.19322e-17
5250.74760 2.19442e-17
5253.79780 2.18168e-17
5256.83790 2.16162e-17
5259.87800 2.14126e-17
5262.91810 2.14267e-17
5265.95820 2.15441e-17
5268.99830 2.15673e-17
5272.03840 2.13918e-17
5275.08860 2.16074e-17
5278.12870 2.13195e-17
5281.16880 2.15398e-17
5284.20890 2.12676e-17
5287.24900 2.13884e-17
5290.28910 2.12091e-17
5293.32920 2.10326e-17
5296.36930 2.10835e-17
5299.41950 2.10760e-17
5302.45960 2.10591e-17
5305.49970 2.10218e-17
5308.53980 2.13480e-17
5311.57990 2.13026e-17
5314.62000 2.14685e-17
5317.66010 2.07701e-17
5320.70020 2.07363e-17
5323.75040 2.10976e-17
5326.79050 2.08547e-17
5329.83060 2.08007e-17
5332.87070 2.07017e-17
5335.91080 2.08779e-17
5338.95090 2.08904e-17
5341.99100 2.04104e-17
5345.04120 2.08893e-17
5348.08130 2.07812e-17
5351.12140 2.07090e-17
5354.16150 2.06548e-17
5357.20160 2.05377e-17
5360.24170 2.06347e-17
5363.28180 2.03452e-17
5366.32190 2.06849e-17
5369.37210 2.08102e-17
5372.41220 2.04475e-17
5375.45230 2.00511e-17
5378.49240 2.01628e-17
5381.53250 2.00504e-17
5384.57260 1.99751e-17
5387.61270 1.99762e-17
5390.66290 1.99322e-17
5393.70300 1.95119e-17
5396.74310 1.95652e-17
5399.78320 1.93196e-17
5402.82330 1.90224e-17
5405.86340 1.90991e-17
5408.90350 1.87914e-17
5411.94360 1.87435e-17
5414.99380 1.91181e-17
5418.03390 1.86368e-17
5421.07400 1.85154e-17
5424.11410 1.83251e-17
5427.15420 1.83044e-17
5430.19430 1.82240e-17
5433.23440 1.81506e-17
5436.27450 1.83512e-17
5439.32470 1.84782e-17
5442.36480 1.79869e-17
5445.40490 1.80334e-17
5448.44500 1.80229e-17
5451.48510 1.80582e-17
5454.52520 1.78552e-17
5457.56530 1.79867e-17
5460.60540 1.80847e-17
5463.65560 1.82765e-17
5466.69570 1.78538e-17
5469.73580 1.78584e-17
5472.77590 1.76341e-17
5475.81600 1.77295e-17
5478.85610 1.79288e-17
5481.89620 1.78956e-17
5484.94640 1.79746e-17
5487.98650 1.81612e-17
5491.02660 1.76644e-17
5494.06670 1.78053e-17
5497.10680 1.78346e-17
5500.14690 1.75070e-17
5503.18700 1.76765e-17
5506.22710 1.77373e-17
5509.27730 1.77195e-17
5512.31740 1.76854e-17
5515.35750 1.80574e-17
5518.39760 1.82299e-17
5521.43770 1.79992e-17
5524.47780 1.82779e-17
5527.51790 1.82202e-17
5530.55800 1.81395e-17
5533.60820 1.80443e-17
5536.64830 1.77917e-17
5539.68840 1.79420e-17
5542.72850 1.76444e-17
5545.76860 1.72636e-17
5548.80870 1.76327e-17
5551.84880 1.78781e-17
5554.88890 1.73856e-17
5557.93910 1.75635e-17
5560.97920 1.78599e-17
5564.01930 1.76297e-17
5567.05940 1.77098e-17
5570.09950 1.80573e-17
5573.13960 1.77659e-17
5576.17970 1.71531e-17
5579.22990 1.75694e-17
5582.27000 1.80054e-17
5585.31010 1.79367e-17
5588.35020 1.78043e-17
5591.39030 1.74090e-17
5594.43040 1.77345e-17
5597.47050 1.76948e-17
5600.51060 1.76436e-17
5603.56080 1.76817e-17
5606.60090 1.78908e-17
5609.64100 1.78369e-17
5612.68110 1.78436e-17
5615.72120 1.79770e-17
5618.76130 1.77905e-17
5621.80140 1.78388e-17
5624.84150 1.79069e-17
5627.89170 1.77799e-17
5630.93180 1.80811e-17
5633.97190 1.83494e-17
5637.01200 1.82705e-17
5640.05210 1.82169e-17
5643.09220 1.81626e-17
5646.13230 1.81937e-17
5649.17240 1.81592e-17
5652.22260 1.77584e-17
5655.26270 1.82178e-17
5658.30280 1.85315e-17
5661.34290 1.82945e-17
5664.38300 1.81677e-17
5667.42310 1.81637e-17
5670.46320 1.80582e-17
5673.51340 1.82215e-17
5676.55350 1.83608e-17
5679.59360 1.83806e-17
5682.63370 1.82346e-17
5685.67380 1.80120e-17
5688.71390 1.83755e-17
5691.75400 1.81709e-17
5694.79410 1.84539e-17
5697.84430 1.83387e-17
5700.88440 1.82789e-17
5703.92450 1.83578e-17
5706.96460 1.83198e-17
5710.00470 1.80214e-17
5713.04480 1.80642e-17
5716.08490 1.82882e-17
5719.12500 1.81521e-17
5722.17520 1.80969e-17
5725.21530 1.83782e-17
5728.25540 1.83314e-17
5731.29550 1.78729e-17
5734.33560 1.78716e-17
5737.37570 1.83126e-17
5740.41580 1.81036e-17
5743.46600 1.79949e-17
5746.50610 1.81925e-17
5749.54620 1.82344e-17
5752.58630 1.85310e-17
5755.62640 1.85772e-17
5758.66650 1.82564e-17
5761.70660 1.81714e-17
5764.74670 1.80626e-17
5767.79690 1.85641e-17
5770.83700 1.85830e-17
5773.87710 1.82375e-17
5776.91720 1.85695e-17
5779.95730 1.88315e-17
5782.99740 1.82183e-17
5786.03750 1.85643e-17
5789.07760 1.85421e-17
5792.12780 1.84947e-17
5795.16790 1.87145e-17
5798.20800 1.85306e-17
5801.24810 1.82141e-17
5804.28820 1.84356e-17
5807.32830 1.84641e-17
5810.36840 1.86325e-17
5813.40850 1.88094e-17
5816.45870 1.86611e-17
5819.49880 1.85198e-17
5822.53890 1.83992e-17
5825.57900 1.86134e-17
5828.61910 1.86588e-17
5831.65920 1.85433e-17
5834.69930 1.84954e-17
5837.74950 1.83060e-17
5840.78960 1.78860e-17
5843.82970 1.84026e-17
5846.86980 1.85977e-17
5849.90990 1.87416e-17
5852.95000 1.84834e-17
5855.99010 1.85234e-17
5859.03020 1.84420e-17
5862.08040 1.83927e-17
5865.12050 1.85336e-17
5868.16060 1.84904e-17
5871.20070 1.81798e-17
5874.24080 1.78754e-17
5877.28090 1.80624e-17
5880.32100 1.81263e-17
5883.37120 1.78529e-17
5886.41130 1.70664e-17
5889.45140 1.64387e-17
5892.49150 1.64386e-17
5895.53160 1.68606e-17
5898.57170 1.67770e-17
5901.61180 1.67854e-17
5904.65190 1.67041e-17
5907.70210 1.66227e-17
5910.74220 1.65414e-17
5913.78230 1.64601e-17
5916.82240 1.63789e-17
5919.86250 1.62977e-17
5922.90260 1.62165e-17
5925.94270 1.61353e-17
5928.98280 1.60542e-17
5932.03300 1.59731e-17
5935.07310 1.58921e-17
5938.11320 1.58110e-17
5941.15330 1.57300e-17
5944.19340 1.56490e-17
5947.23350 1.55681e-17
5950.27360 1.54872e-17
5953.31370 1.54063e-17
5956.36390 1.53254e-17
5959.40400 1.52446e-17
5962.44410 1.51637e-17
5965.48420 1.50830e-17
5968.52430 1.49255e-17
5971.56440 1.49055e-17
5974.60450 1.49104e-17
5977.65470 1.49202e-17
5980.69480 1.51447e-17
5983.73490 1.49920e-17
5986.77500 1.50340e-17
5989.81510 1.51691e-17
5992.85520 1.50550e-17
5995.89530 1.48020e-17
5998.93540 1.50758e-17
6001.98560 1.55251e-17
6005.02570 1.53133e-17
6008.06580 1.49088e-17
6011.10590 1.51774e-17
6014.14600 1.53064e-17
6017.18610 1.53366e-17
6020.22620 1.53490e-17
6023.26630 1.53331e-17
6026.31650 1.53284e-17
6029.35660 1.53309e-17
6032.39670 1.53304e-17
6035.43680 1.52976e-17
6038.47690 1.53625e-17
6041.51700 1.56343e-17
6044.55710 1.55349e-17
6047.60730 1.55131e-17
6050.64740 1.53790e-17
6053.68750 1.54759e-17
6056.72760 1.56329e-17
6059.76770 1.54891e-17
6062.80780 1.55028e-17
6065.84790 1.59250e-17
6068.88800 1.57347e-17
6071.93820 1.54207e-17
6074.97830 1.55349e-17
6078.01840 1.53302e-17
6081.05850 1.55360e-17
6084.09860 1.55877e-17
6087.13870 1.54936e-17
6090.17880 1.54774e-17
6093.21890 1.56033e-17
6096.26910 1.53527e-17
6099.30920 1.55153e-17
6102.34930 1.55466e-17
6105.38940 1.56473e-17
6108.42950 1.57181e-17
6111.46960 1.55913e-17
6114.50970 1.57442e-17
6117.54980 1.59728e-17
6120.60000 1.57895e-17
6123.64010 1.59354e-17
6126.68020 1.58641e-17
6129.72030 1.59661e-17
6132.76040 1.59119e-17
6135.80050 1.56577e-17
6138.84060 1.59512e-17
6141.89080 1.57323e-17
6144.93090 1.56572e-17
6147.97100 1.58524e-17
6151.01110 1.55432e-17
6154.05120 1.56950e-17
6157.09130 1.58541e-17
6160.13140 1.56602e-17
6163.17150 1.56599e-17
6166.22170 1.60106e-17
6169.26180 1.58894e-17
6172.30190 1.58293e-17
6175.34200 1.61120e-17
6178.38210 1.58556e-17
6181.42220 1.62553e-17
6184.46230 1.60816e-17
6187.50240 1.63216e-17
6190.55260 1.64853e-17
6193.59270 1.64402e-17
6196.63280 1.62694e-17
6199.67290 1.62876e-17
6202.71300 1.62803e-17
6205.75310 1.66441e-17
6208.79320 1.70958e-17
6211.83330 1.68590e-17
6214.88350 1.65058e-17
6217.92360 1.68485e-17
6220.96370 1.68438e-17
6224.00380 1.70016e-17
6227.04390 1.69017e-17
6230.08400 1.70984e-17
6233.12410 1.70893e-17
6236.17430 1.69343e-17
6239.21440 1.72449e-17
6242.25450 1.72976e-17
6245.29460 1.76784e-17
6248.33470 1.74105e-17
6251.37480 1.73202e-17
6254.41490 1.72487e-17
6257.45500 1.76582e-17
6260.50520 1.76501e-17
6263.54530 1.73415e-17
6266.58540 1.75206e-17
6269.62550 1.75527e-17
6272.66560 1.76281e-17
6275.70570 1.77893e-17
6278.74580 1.78273e-17
6281.78590 1.78889e-17
6284.83610 1.76318e-17
6287.87620 1.80601e-17
6290.91630 1.81084e-17
6293.95640 1.82105e-17
6296.99650 1.83250e-17
6300.03660 1.81250e-17
6303.07670 1.80712e-17
6306.12690 1.84714e-17
6309.16700 1.86311e-17
6312.20710 1.83766e-17
6315.24720 1.80234e-17
6318.28730 1.77012e-17
6321.32740 1.80720e-17
6324.36750 1.82452e-17
6327.40760 1.80512e-17
6330.45780 1.80840e-17
6333.49790 1.75854e-17
6336.53800 1.80374e-17
6339.57810 1.81109e-17
6342.61820 1.77972e-17
6345.65830 1.70670e-17
6348.69840 1.68206e-17
6351.73850 1.71382e-17
6354.78870 1.80068e-17
6357.82880 1.81976e-17
6360.86890 1.82718e-17
6363.90900 1.86762e-17
6366.94910 1.85711e-17
6369.98920 1.83240e-17
6373.02930 1.81931e-17
6376.06940 1.81744e-17
6379.11960 1.80290e-17
6382.15970 1.81262e-17
6385.19980 1.81430e-17
6388.23990 1.83060e-17
6391.28000 1.83125e-17
6394.32010 1.79662e-17
6397.36020 1.77281e-17
6400.41040 1.81154e-17
6403.45050 1.81675e-17
6406.49060 1.80301e-17
6409.53070 1.80820e-17
6412.57080 1.84045e-17
6415.61090 1.83410e-17
6418.65100 1.80678e-17
6421.69110 1.80703e-17
6424.74130 1.82746e-17
6427.78140 1.82265e-17
6430.82150 1.84304e-17
6433.86160 1.81447e-17
6436.90170 1.80829e-17
