# wavelength flux
3449.99840 5.14062e-18
3453.02840 3.67921e-18
3456.06850 6.48721e-18
3459.09850 6.15342e-18
3462.12850 5.53227e-18
3465.15850 6.36453e-18
3468.19860 6.27446e-18
3471.22860 5.00529e-18
3474.25860 6.47809e-18
3477.28860 6.45758e-18
3480.32870 6.81686e-18
3483.35870 6.02762e-18
3486.38870 9.13265e-18
3489.41870 8.83610e-18
3492.45880 8.81254e-18
3495.48880 7.11923e-18
3498.51880 6.41209e-18
3501.54880 7.32100e-18
3504.57880 6.88880e-18
3507.61890 7.37678e-18
3510.64890 7.98273e-18
3513.67890 7.98367e-18
3516.70890 8.21165e-18
3519.74900 6.41424e-18
3522.77900 8.00246e-18
3525.80900 8.64807e-18
3528.83900 6.54803e-18
3531.87910 5.99534e-18
3534.90910 7.58421e-18
3537.93910 6.40370e-18
3540.96910 5.17622e-18
3544.00920 6.60363e-18
3547.03920 7.40336e-18
3550.06920 8.33749e-18
3553.09920 6.81566e-18
3556.13930 5.94543e-18
3559.16930 5.80831e-18
3562.19930 9.12063e-18
3565.22930 8.85209e-18
3568.25930 8.06916e-18
3571.29940 8.41690e-18
3574.32940 6.94611e-18
3577.35940 8.55112e-18
3580.38940 7.29612e-18
3583.42950 7.92799e-18
3586.45950 8.06359e-18
3589.48950 6.96179e-18
3592.51950 7.84526e-18
3595.55960 7.93751e-18
3598.58960 7.22789e-18
3601.61960 5.84031e-18
3604.64960 4.79442e-18
3607.68970 7.41364e-18
3610.71970 8.08111e-18
3613.74970 7.95418e-18
3616.77970 7.42368e-18
3619.81980 7.54739e-18
3622.84980 7.88000e-18
3625.87980 5.96883e-18
3628.90980 8.01641e-18
3631.94990 8.20602e-18
3634.97990 7.11125e-18
3638.00990 6.47356e-18
3641.03990 7.60416e-18
3644.06990 6.63708e-18
3647.11000 6.09470e-18
3650.14000 8.17844e-18
3653.17000 9.29777e-18
3656.20000 8.97288e-18
3659.24010 6.42126e-18
3662.27010 7.42993e-18
3665.30010 8.67491e-18
3668.33010 8.54401e-18
3671.37020 6.56053e-18
3674.40020 6.79206e-18
3677.43020 6.39250e-18
3680.46020 7.33648e-18
3683.50030 6.64025e-18
3686.53030 6.08231e-18
3689.56030 7.82385e-18
3692.59030 8.00565e-18
3695.63040 7.06773e-18
3698.66040 6.99742e-18
3701.69040 7.25612e-18
3704.72040 7.25732e-18
3707.75040 6.67823e-18
3710.79050 7.41443e-18
3713.82050 5.86971e-18
3716.85050 7.73084e-18
3719.88050 5.42513e-18
3722.92060 5.25464e-18
3725.95060 6.39358e-18
3728.98060 6.58375e-18
3732.01060 7.14950e-18
3735.05070 5.33243e-18
3738.08070 6.03701e-18
3741.11070 6.47472e-18
3744.14070 5.75719e-18
3747.18080 5.80693e-18
3750.21080 5.91298e-18
3753.24080 6.01898e-18
3756.27080 6.12494e-18
3759.31090 6.23084e-18
3762.34090 6.33669e-18
3765.37090 6.44248e-18
3768.40090 6.54821e-18
3771.44100 6.65390e-18
3774.47100 6.75954e-18
3777.50100 6.86513e-18
3780.53100 6.97065e-18
3783.56100 7.07614e-18
3786.60110 7.18158e-18
3789.63110 7.07411e-18
3792.66110 5.95656e-18
3795.69110 8.07251e-18
3798.73120 7.28375e-18
3801.76120 6.34040e-18
3804.79120 5.41287e-18
3807.82120 5.35217e-18
3810.86130 7.20772e-18
3813.89130 6.09035e-18
3816.92130 7.41745e-18
3819.95130 6.83496e-18
3822.99140 7.29898e-18
3826.02140 6.81703e-18
3829.05140 6.45392e-18
3832.08140 6.95462e-18
3835.12150 7.81153e-18
3838.15150 8.23164e-18
3841.18150 7.27048e-18
3844.21150 7.57556e-18
3847.25160 7.53972e-18
3850.28160 7.68201e-18
3853.31160 6.18867e-18
3856.34160 8.12905e-18
3859.37160 7.67977e-18
3862.41170 8.24384e-18
3865.44170 7.30169e-18
3868.47170 8.26240e-18
3871.50170 7.65072e-18
3874.54180 8.98101e-18
3877.57180 8.01804e-18
3880.60180 7.64505e-18
3883.63180 7.38584e-18
3886.67190 7.51778e-18
3889.70190 7.36131e-18
3892.73190 8.04639e-18
3895.76190 7.42778e-18
3898.80200 8.18139e-18
3901.83200 9.02659e-18
3904.86200 8.80236e-18
3907.89200 8.42793e-18
3910.93210 7.07542e-18
3913.96210 6.32824e-18
3916.99210 7.17909e-18
3920.02210 9.02372e-18
3923.05210 9.33196e-18
3926.09220 1.17938e-17
3929.12220 1.22687e-17
3932.15220 8.93884e-18
3935.18220 6.46688e-18
3938.22230 6.67859e-18
3941.25230 7.76199e-18
3944.28230 7.37500e-18
3947.31230 7.59722e-18
3950.35240 8.39567e-18
3953.38240 7.27957e-18
3956.41240 7.97577e-18
3959.44240 8.14251e-18
3962.48250 7.60820e-18
3965.51250 7.08432e-18
3968.54250 6.75895e-18
3971.57250 7.41387e-18
3974.61260 8.50945e-18
3977.64260 7.75376e-18
3980.67260 7.54239e-18
3983.70260 8.62405e-18
3986.73260 6.98780e-18
3989.77270 7.79389e-18
3992.80270 6.76714e-18
3995.83270 7.32261e-18
3998.86270 8.12902e-18
4001.90280 8.07559e-18
4004.93280 8.85372e-18
4007.96280 1.07336e-17
4010.99280 1.10220e-17
4014.03290 1.03138e-17
4017.06290 8.16560e-18
4020.09290 7.50605e-18
4023.12290 7.55380e-18
4026.16300 6.28508e-18
4029.19300 6.76537e-18
4032.22300 6.11691e-18
4035.25300 6.86339e-18
4038.29310 8.51308e-18
4041.32310 6.69331e-18
4044.35310 6.33313e-18
4047.38310 8.30200e-18
4050.42320 7.10188e-18
4053.45320 7.30442e-18
4056.48320 6.88978e-18
4059.51320 8.07602e-18
4062.54320 8.69973e-18
4065.58330 8.14276e-18
4068.61330 7.71998e-18
4071.64330 7.59098e-18
4074.67330 7.11486e-18
4077.71340 7.18307e-18
4080.74340 6.97814e-18
4083.77340 7.18086e-18
4086.80340 7.06794e-18
4089.84350 7.75936e-18
4092.87350 7.00466e-18
4095.90350 6.51512e-18
4098.93350 6.96122e-18
4101.97360 7.02048e-18
4105.00360 6.83687e-18
4108.03360 7.71052e-18
4111.06360 6.62691e-18
4114.10370 6.75465e-18
4117.13370 6.41543e-18
4120.16370 7.45236e-18
4123.19370 7.50319e-18
4126.22370 5.58985e-18
4129.26380 7.58714e-18
4132.29380 6.97579e-18
4135.32380 7.32533e-18
4138.35380 8.78496e-18
4141.39390 1.21729e-17
4144.42390 1.41773e-17
4147.45390 1.06245e-17
4150.48390 8.53435e-18
4153.52400 7.30109e-18
4156.55400 7.37815e-18
4159.58400 7.03457e-18
4162.61400 6.87831e-18
4165.65410 5.92431e-18
4168.68410 6.20990e-18
4171.71410 7.18167e-18
4174.74410 6.69994e-18
4177.78420 6.84374e-18
4180.81420 7.07819e-18
4183.84420 5.73173e-18
4186.87420 6.70324e-18
4189.91430 6.82673e-18
4192.94430 7.42715e-18
4195.97430 7.06405e-18
4199.00430 7.12216e-18
4202.03430 5.98385e-18
4205.07440 5.96205e-18
4208.10440 6.89148e-18
4211.13440 6.45979e-18
4214.16440 5.51298e-18
4217.20450 7.04908e-18
4220.23450 6.33810e-18
4223.26450 6.26459e-18
4226.29450 6.02566e-18
4229.33460 6.46514e-18
4232.36460 6.87070e-18
4235.39460 7.07704e-18
4238.42460 6.31048e-18
4241.46470 6.72288e-18
4244.49470 6.51499e-18
4247.52470 7.02207e-18
4250.55470 6.75658e-18
4253.59480 6.44772e-18
4256.62480 6.82916e-18
4259.65480 7.23726e-18
4262.68480 7.19506e-18
4265.71480 6.20475e-18
4268.75490 6.51624e-18
4271.78490 6.48978e-18
4274.81490 5.60720e-18
4277.84490 6.54746e-18
4280.88500 6.73617e-18
4283.91500 7.66660e-18
4286.94500 6.95591e-18
4289.97500 6.69192e-18
4293.01510 7.04135e-18
4296.04510 7.29544e-18
4299.07510 7.22417e-18
4302.10510 6.90813e-18
4305.14520 7.02682e-18
4308.17520 7.25204e-18
4311.20520 7.41374e-18
4314.23520 7.91799e-18
4317.27530 6.97591e-18
4320.30530 7.25642e-18
4323.33530 7.12783e-18
4326.36530 6.92737e-18
4329.40540 6.78314e-18
4332.43540 6.89975e-18
4335.46540 7.37505e-18
4338.49540 7.05622e-18
4341.52540 6.69817e-18
4344.56550 7.13474e-18
4347.59550 7.54646e-18
4350.62550 7.20189e-18
4353.65550 6.52734e-18
4356.69560 7.03350e-18
4359.72560 6.60239e-18
4362.75560 6.87718e-18
4365.78560 6.93847e-18
4368.82570 7.24315e-18
4371.85570 7.46247e-18
4374.88570 7.57188e-18
4377.91570 7.59052e-18
4380.95580 7.60916e-18
4383.98580 7.62778e-18
4387.01580 7.64639e-18
4390.04580 7.66499e-18
4393.08590 7.68357e-18
4396.11590 7.70215e-18
4399.14590 7.72071e-18
4402.17590 7.73926e-18
4405.21600 7.75780e-18
4408.24600 7.77632e-18
4411.27600 7.79483e-18
4414.30600 7.81333e-18
4417.33600 7.83182e-18
4420.37610 7.85030e-18
4423.40610 7.86876e-18
4426.43610 7.88721e-18
4429.46610 7.90565e-18
4432.50620 7.92408e-18
4435.53620 7.94250e-18
4438.56620 7.96089e-18
4441.59620 7.55609e-18
4444.63630 7.67287e-18
4447.66630 7.50209e-18
4450.69630 7.97342e-18
4453.72630 8.35416e-18
4456.76640 8.48177e-18
4459.79640 7.65676e-18
4462.82640 7.70616e-18
4465.85640 8.37914e-18
4468.89650 7.24538e-18
4471.92650 7.59050e-18
4474.95650 7.43949e-18
4477.98650 7.31078e-18
4481.01650 7.19740e-18
4484.05660 8.25322e-18
4487.08660 7.70481e-18
4490.11660 8.41722e-18
4493.14660 8.67974e-18
4496.18670 7.93318e-18
4499.21670 7.84324e-18
4502.24670 8.28900e-18
4505.27670 8.51593e-18
4508.31680 8.94425e-18
4511.34680 9.77048e-18
4514.37680 8.63532e-18
4517.40680 9.20489e-18
4520.44690 8.83653e-18
4523.47690 8.18390e-18
4526.50690 8.84417e-18
4529.53690 8.67259e-18
4532.57700 8.52165e-18
4535.60700 8.35576e-18
4538.63700 8.70979e-18
4541.66700 8.74943e-18
4544.70710 9.30862e-18
4547.73710 9.06615e-18
4550.76710 8.68888e-18
4553.79710 9.05287e-18
4556.82710 8.01544e-18
4559.86720 8.30851e-18
4562.89720 6.95310e-18
4565.92720 8.64282e-18
4568.95720 8.50238e-18
4571.99730 8.37142e-18
4575.02730 7.74308e-18
4578.05730 8.15461e-18
4581.08730 8.71254e-18
4584.12740 9.36491e-18
4587.15740 8.07964e-18
4590.18740 7.71130e-18
4593.21740 7.92565e-18
4596.25750 7.88742e-18
4599.28750 8.24334e-18
4602.31750 7.61299e-18
4605.34750 8.56057e-18
4608.38760 8.01213e-18
4611.41760 8.11364e-18
4614.44760 7.38777e-18
4617.47760 8.08819e-18
4620.51770 7.41528e-18
4623.54770 7.35333e-18
4626.57770 7.88744e-18
4629.60770 7.28725e-18
4632.63770 7.79039e-18
4635.67780 7.40772e-18
4638.70780 7.15163e-18
4641.73780 7.56781e-18
4644.76780 7.58616e-18
4647.80790 7.26994e-18
4650.83790 7.70315e-18
4653.86790 6.74416e-18
4656.89790 7.48459e-18
4659.93800 7.10365e-18
4662.96800 7.11663e-18
4665.99800 7.73613e-18
4669.02800 7.41768e-18
4672.06810 7.12803e-18
4675.09810 7.03759e-18
4678.12810 7.43320e-18
4681.15810 6.90378e-18
4684.19820 7.40655e-18
4687.22820 7.97733e-18
4690.25820 7.20685e-18
4693.28820 7.12833e-18
4696.31820 6.94116e-18
4699.35830 7.06683e-18
4702.38830 7.04865e-18
4705.41830 7.69909e-18
4708.44830 7.72997e-18
4711.48840 6.96352e-18
4714.51840 7.28847e-18
4717.54840 7.95302e-18
4720.57840 7.96047e-18
4723.61850 7.51369e-18
4726.64850 7.81555e-18
4729.67850 8.04281e-18
4732.70850 7.61809e-18
4735.74860 7.76394e-18
4738.77860 6.98914e-18
4741.80860 6.66345e-18
4744.83860 7.57701e-18
4747.87870 7.78007e-18
4750.90870 7.74897e-18
4753.93870 7.25524e-18
4756.96870 7.53421e-18
4759.99870 7.23537e-18
4763.03880 7.07767e-18
4766.06880 6.99995e-18
4769.09880 7.44634e-18
4772.12880 7.50113e-18
4775.16890 7.85215e-18
4778.19890 7.69510e-18
4781.22890 6.88789e-18
4784.25890 7.48806e-18
4787.29900 8.08129e-18
4790.32900 7.54131e-18
4793.35900 6.64644e-18
4796.38900 7.79184e-18
4799.42910 7.35975e-18
4802.45910 7.50894e-18
4805.48910 7.09093e-18
4808.51910 6.98283e-18
4811.55920 7.15765e-18
4814.58920 6.83625e-18
4817.61920 5.90643e-18
4820.64920 7.13797e-18
4823.68930 7.00429e-18
4826.71930 7.43409e-18
4829.74930 7.17587e-18
4832.77930 7.26701e-18
4835.80930 6.07634e-18
4838.84940 6.85603e-18
4841.87940 6.88564e-18
4844.90940 6.76160e-18
4847.93940 7.41701e-18
4850.97950 7.65482e-18
4854.00950 7.72433e-18
4857.03950 7.54793e-18
4860.06950 7.27150e-18
4863.10960 6.44959e-18
4866.13960 7.21842e-18
4869.16960 7.90136e-18
4872.19960 7.15385e-18
4875.23970 7.36440e-18
4878.26970 7.17808e-18
4881.29970 7.00731e-18
4884.32970 7.35981e-18
4887.36980 7.83536e-18
4890.39980 7.49593e-18
4893.42980 7.48886e-18
4896.45980 7.48180e-18
4899.48980 7.47474e-18
4902.52990 7.46769e-18
4905.55990 7.46064e-18
4908.58990 7.45359e-18
4911.61990 7.44655e-18
4914.66000 7.43951e-18
4917.69000 7.43248e-18
4920.72000 7.42545e-18
4923.75000 7.41842e-18
4926.79010 7.41140e-18
4929.82010 7.40438e-18
4932.85010 7.03743e-18
4935.88010 7.16108e-18
4938.92020 6.55912e-18
4941.95020 7.06187e-18
4944.98020 7.22499e-18
4948.01020 7.18279e-18
4951.05030 7.71083e-18
4954.08030 6.95504e-18
4957.11030 6.88884e-18
4960.14030 7.40490e-18
4963.18040 7.35177e-18
4966.21040 7.54935e-18
4969.24040 7.32045e-18
4972.27040 7.00554e-18
4975.30040 7.55753e-18
4978.34050 7.33914e-18
4981.37050 6.97183e-18
4984.40050 7.16810e-18
4987.43050 7.18176e-18
4990.47060 7.16038e-18
4993.50060 7.13901e-18
4996.53060 7.11766e-18
4999.56060 7.09631e-18
5002.60070 7.07498e-18
5005.63070 7.05366e-18
5008.66070 7.03235e-18
5011.69070 7.01105e-18
5014.73080 6.98977e-18
5017.76080 6.96850e-18
5020.79080 6.94724e-18
5023.82080 6.92599e-18
5026.85080 6.90476e-18
5029.89090 7.65068e-18
5032.92090 7.65104e-18
5035.95090 8.07602e-18
5038.98090 8.10334e-18
5042.02100 8.13066e-18
5045.05100 8.15796e-18
5048.08100 8.18524e-18
5051.11100 8.21252e-18
5054.15110 8.23978e-18
5057.18110 8.26703e-18
5060.21110 8.29427e-18
5063.24110 8.32149e-18
5066.28120 8.34870e-18
5069.31120 8.37590e-18
5072.34120 8.40308e-18
5075.37120 8.43026e-18
5078.41130 8.83298e-18
5081.44130 8.72646e-18
5084.47130 8.67524e-18
5087.50130 8.12395e-18
5090.54140 8.59028e-18
5093.57140 8.41093e-18
5096.60140 9.03794e-18
5099.63140 8.68568e-18
5102.67150 8.48857e-18
5105.70150 8.75120e-18
5108.73150 8.87956e-18
5111.76150 9.31862e-18
5114.79150 8.62211e-18
5117.83160 8.65648e-18
5120.86160 8.12786e-18
5123.89160 8.57445e-18
5126.92160 8.94375e-18
5129.96170 9.12625e-18
5132.99170 9.44872e-18
5136.02170 9.45641e-18
5139.05170 9.23003e-18
5142.09180 8.87311e-18
5145.12180 9.34256e-18
5148.15180 9.87751e-18
5151.18180 1.02514e-17
5154.22190 9.41889e-18
5157.25190 1.02341e-17
5160.28190 9.37613e-18
5163.31190 9.73029e-18
5166.35200 9.40943e-18
5169.38200 9.64962e-18
5172.41200 9.30152e-18
5175.44200 9.81064e-18
5178.48210 1.00300e-17
5181.51210 1.00535e-17
5184.54210 1.01481e-17
5187.57210 9.61450e-18
5190.60210 1.02995e-17
5193.64220 9.64087e-18
5196.67220 9.74165e-18
5199.70220 1.00044e-17
5202.73220 9.79228e-18
5205.77230 1.02303e-17
5208.80230 1.00906e-17
5211.83230 1.11544e-17
5214.86230 1.04602e-17
5217.90240 1.02437e-17
5220.93240 9.51617e-18
5223.96240 1.11392e-17
5226.99240 1.03582e-17
5230.03250 1.08645e-17
5233.06250 1.04525e-17
5236.09250 1.10007e-17
5239.12250 1.13859e-17
5242.16260 1.20066e-17
5245.19260 1.18743e-17
5248.22260 1.20335e-17
5251.25260 1.14953e-17
5254.29270 1.20023e-17
5257.32270 1.21863e-17
5260.35270 1.17037e-17
5263.38270 1.18186e-17
5266.41270 1.17050e-17
5269.45280 1.14950e-17
5272.48280 1.23697e-17
5275.51280 1.16745e-17
5278.54280 1.22344e-17
5281.58290 1.28264e-17
5284.61290 1.19620e-17
5287.64290 1.14489e-17
5290.67290 1.23703e-17
5293.71300 1.18141e-17
5296.74300 1.18197e-17
5299.77300 1.35483e-17
5302.80300 1.35152e-17
5305.84310 1.27020e-17
5308.87310 1.24944e-17
5311.90310 1.29569e-17
5314.93310 1.26311e-17
5317.96310 1.26520e-17
5321.00320 1.29772e-17
5324.03320 1.35246e-17
5327.06320 1.33760e-17
5330.09320 1.31143e-17
5333.13330 1.30820e-17
5336.16330 1.31391e-17
5339.19330 1.39313e-17
5342.22330 1.44684e-17
5345.26340 1.34037e-17
5348.29340 1.33876e-17
5351.32340 1.39776e-17
5354.35340 1.32255e-17
5357.39350 1.38098e-17
5360.42350 1.41727e-17
5363.45350 1.47411e-17
5366.48350 1.36493e-17
5369.52360 1.38023e-17
5372.55360 1.43034e-17
5375.58360 1.43776e-17
5378.61360 1.47259e-17
5381.65370 1.43151e-17
5384.68370 1.43818e-17
5387.71370 1.46365e-17
5390.74370 1.51212e-17
5393.77370 1.43928e-17
5396.81380 1.43268e-17
5399.84380 1.53241e-17
5402.87380 1.54584e-17
5405.90380 1.46289e-17
5408.94390 1.45131e-17
5411.97390 1.51972e-17
5415.00390 1.50799e-17
5418.03390 1.50084e-17
5421.07400 1.43177e-17
5424.10400 1.49588e-17
5427.13400 1.53848e-17
5430.16400 1.54536e-17
5433.20410 1.49374e-17
5436.23410 1.48079e-17
5439.26410 1.50279e-17
5442.29410 1.53787e-17
5445.33420 1.56210e-17
5448.36420 1.51741e-17
5451.39420 1.59580e-17
5454.42420 1.55680e-17
5457.46430 1.53377e-17
5460.49430 1.47727e-17
5463.52430 1.55720e-17
5466.55430 1.58860e-17
5469.58430 1.57231e-17
5472.62440 1.54293e-17
5475.65440 1.62083e-17
5478.68440 1.60020e-17
5481.71440 1.57846e-17
5484.75450 1.61291e-17
5487.78450 1.61263e-17
5490.81450 1.57831e-17
5493.84450 1.60069e-17
5496.88460 1.60217e-17
5499.91460 1.59185e-17
5502.94460 1.57788e-17
5505.97460 1.55723e-17
5509.01470 1.62538e-17
5512.04470 1.57108e-17
5515.07470 1.52767e-17
5518.10470 1.59548e-17
5521.14480 1.64221e-17
5524.17480 1.51386e-17
5527.20480 1.64293e-17
5530.23480 1.57613e-17
5533.26480 1.59002e-17
5536.30490 1.61222e-17
5539.33490 1.53916e-17
5542.36490 1.50212e-17
5545.39490 1.52118e-17
5548.43500 1.59668e-17
5551.46500 1.56847e-17
5554.49500 1.51311e-17
5557.52500 1.52800e-17
5560.56510 1.54547e-17
5563.59510 1.53849e-17
5566.62510 1.43899e-17
5569.65510 1.47222e-17
5572.69520 1.65517e-17
5575.72520 1.51455e-17
5578.75520 1.34806e-17
5581.78520 1.58321e-17
5584.82530 1.53110e-17
5587.85530 1.44895e-17
5590.88530 1.46091e-17
5593.91530 1.41788e-17
5596.94530 1.41192e-17
5599.98540 1.46352e-17
5603.01540 1.45157e-17
5606.04540 1.46419e-17
5609.07540 1.46449e-17
5612.11550 1.48702e-17
5615.14550 1.40240e-17
5618.17550 1.41939e-17
5621.20550 1.43940e-17
5624.24560 1.46050e-17
5627.27560 1.43498e-17
5630.30560 1.38017e-17
5633.33560 1.45671e-17
5636.37570 1.48088e-17
5639.40570 1.46576e-17
5642.43570 1.46364e-17
5645.46570 1.45915e-17
5648.50580 1.37183e-17
5651.53580 1.41529e-17
5654.56580 1.37576e-17
5657.59580 1.35988e-17
5660.62580 1.41419e-17
5663.66590 1.44187e-17
5666.69590 1.42392e-17
5669.72590 1.43035e-17
5672.75590 1.41678e-17
5675.79600 1.41215e-17
5678.82600 1.42282e-17
5681.85600 1.40879e-17
5684.88600 1.46089e-17
5687.92610 1.49644e-17
5690.95610 1.39836e-17
5693.98610 1.37104e-17
5697.01610 1.44265e-17
5700.05620 1.41504e-17
5703.08620 1.43312e-17
5706.11620 1.41498e-17
5709.14620 1.50091e-17
5712.18630 1.48022e-17
5715.21630 1.51395e-17
5718.24630 1.45447e-17
5721.27630 1.47523e-17
5724.31640 1.53089e-17
5727.34640 1.50784e-17
5730.37640 1.56412e-17
5733.40640 1.53284e-17
5736.44650 1.52658e-17
5739.47650 1.53782e-17
5742.50650 1.52494e-17
5745.53650 1.49863e-17
5748.56650 1.52434e-17
5751.60660 1.51741e-17
5754.63660 1.58012e-17
5757.66660 1.52701e-17
5760.69660 1.53514e-17
5763.73670 1.52740e-17
5766.76670 1.52628e-17
5769.79670 1.49348e-17
5772.82670 1.49484e-17
5775.86680 1.56675e-17
5778.89680 1.50091e-17
5781.92680 1.55015e-17
5784.95680 1.55978e-17
5787.99690 1.60545e-17
5791.02690 1.59999e-17
5794.05690 1.52504e-17
5797.08690 1.59248e-17
5800.12700 1.58009e-17
5803.15700 1.58711e-17
5806.18700 1.53978e-17
5809.21700 1.55181e-17
5812.25710 1.57081e-17
5815.28710 1.56475e-17
5818.31710 1.56436e-17
5821.34710 1.64472e-17
5824.37710 1.53577e-17
5827.41720 1.54080e-17
5830.44720 1.53482e-17
5833.47720 1.58538e-17
5836.50720 1.61674e-17
5839.54730 1.47954e-17
5842.57730 1.48991e-17
5845.60730 1.50833e-17
5848.63730 1.62553e-17
5851.67740 1.57924e-17
5854.70740 1.55976e-17
5857.73740 1.62483e-17
5860.76740 1.55100e-17
5863.80750 1.45491e-17
5866.83750 1.61500e-17
5869.86750 1.63410e-17
5872.89750 1.49000e-17
5875.92750 1.61369e-17
5878.96760 1.66667e-17
5881.99760 1.57531e-17
5885.02760 1.60653e-17
5888.06770 1.52422e-17
5891.09770 1.46392e-17
5894.12770 1.43227e-17
5897.15770 1.51994e-17
5900.18770 1.60205e-17
5903.22780 1.51918e-17
5906.25780 1.52212e-17
5909.28780 1.52507e-17
5912.31780 1.52801e-17
5915.35790 1.53095e-17
5918.38790 1.53390e-17
5921.41790 1.53684e-17
5924.44790 1.53978e-17
5927.48800 1.54272e-17
5930.51800 1.54566e-17
5933.54800 1.54861e-17
5936.57800 1.55155e-17
5939.61810 1.55449e-17
5942.64810 1.55743e-17
5945.67810 1.56036e-17
5948.70810 1.56330e-17
5951.73810 1.56624e-17
5954.77820 1.56918e-17
5957.80820 1.57212e-17
5960.83820 1.57505e-17
5963.86820 1.57799e-17
5966.90830 1.58093e-17
5969.93830 1.49681e-17
5972.96830 1.49408e-17
5975.99830 1.55695e-17
5979.03840 1.48280e-17
5982.06840 1.56903e-17
5985.09840 1.49848e-17
5988.12840 1.45424e-17
5991.16850 1.51624e-17
5994.19850 1.50030e-17
5997.22850 1.46463e-17
6000.25850 1.41458e-17
6003.29860 1.41885e-17
6006.32860 1.42320e-17
6009.35860 1.40358e-17
6012.38860 1.40634e-17
6015.42870 1.48100e-17
6018.45870 1.49732e-17
6021.48870 1.49746e-17
6024.51870 1.48174e-17
6027.54870 1.40105e-17
6030.58880 1.38507e-17
6033.61880 1.38025e-17
6036.64880 1.38272e-17
6039.67880 1.40993e-17
6042.71890 1.45300e-17
6045.74890 1.42796e-17
6048.77890 1.36516e-17
6051.80890 1.37145e-17
6054.84900 1.38271e-17
6057.87900 1.37067e-17
6060.90900 1.34976e-17
6063.93900 1.39451e-17
6066.97910 1.31452e-17
6070.00910 1.35110e-17
6073.03910 1.29530e-17
6076.06910 1.28577e-17
6079.10920 1.26865e-17
