# wavelength flux
3620.00016 7.46868e-18
3621.99701 7.26757e-18
3624.00404 6.73856e-18
3626.00089 7.27914e-18
3627.99774 7.12686e-18
3630.00478 6.80926e-18
3632.00162 6.93572e-18
3633.99847 7.24889e-18
3635.99532 7.24396e-18
3638.00236 6.93176e-18
3639.99920 6.38124e-18
3641.99605 6.64823e-18
3644.00309 6.70501e-18
3645.99994 6.08202e-18
3647.99678 6.46056e-18
3650.00382 6.57620e-18
3652.00067 5.90614e-18
3653.99752 6.10119e-18
3656.00455 5.59907e-18
3658.00140 5.39200e-18
3659.99825 5.33484e-18
3661.99510 5.62268e-18
3664.00213 5.90722e-18
3665.99898 5.77008e-18
3667.99583 4.88971e-18
3670.00286 4.69763e-18
3671.99971 5.18057e-18
3673.99656 5.13847e-18
3676.00360 5.09241e-18
3678.00044 5.83666e-18
3679.99729 5.81268e-18
3682.00433 5.45580e-18
3684.00118 6.03841e-18
3685.99802 6.09589e-18
3688.00506 5.85998e-18
3690.00191 6.27805e-18
3691.99876 6.57498e-18
3693.99560 6.37228e-18
3696.00264 6.69012e-18
3697.99949 6.87971e-18
3699.99634 6.71990e-18
3702.00337 7.18097e-18
3704.00022 7.88800e-18
3705.99707 8.08854e-18
3708.00410 7.54916e-18
3710.00095 7.60178e-18
3711.99780 7.35239e-18
3714.00484 7.30606e-18
3716.00168 7.91188e-18
3717.99853 8.10570e-18
3719.99538 7.64310e-18
3722.00242 7.74289e-18
3723.99926 8.08218e-18
3725.99611 8.05829e-18
3728.00315 7.72320e-18
3730.00000 7.30011e-18
3731.99684 7.40615e-18
3734.00388 7.51125e-18
3736.00073 7.71794e-18
3737.99758 7.60474e-18
3740.00461 7.62934e-18
3742.00146 7.60518e-18
3743.99831 7.05486e-18
3745.99516 6.94658e-18
3748.00219 7.29639e-18
3749.99904 7.64925e-18
3751.99589 7.71659e-18
3754.00292 7.40236e-18
3755.99977 7.05669e-18
3757.99662 7.13588e-18
3760.00366 7.29062e-18
3762.00050 7.05418e-18
3763.99735 7.35808e-18
3766.00439 7.21974e-18
3768.00124 7.23256e-18
3769.99808 6.98061e-18
3772.00512 6.64850e-18
3774.00197 6.55133e-18
3775.99882 6.74645e-18
3777.99566 6.67810e-18
3780.00270 6.60977e-18
3781.99955 6.55250e-18
3783.99640 6.49523e-18
3786.00343 6.43799e-18
3788.00028 6.38075e-18
3789.99713 6.32352e-18
3792.00416 6.26630e-18
3794.00101 6.20909e-18
3795.99786 6.15190e-18
3798.00490 6.09472e-18
3800.00174 6.03754e-18
3801.99859 5.98038e-18
3803.99544 5.92322e-18
3806.00248 5.86608e-18
3807.99932 5.80895e-18
3809.99617 5.75183e-18
3812.00321 5.69471e-18
3814.00006 5.63761e-18
3815.99690 5.58052e-18
3818.00394 5.52344e-18
3820.00079 5.57705e-18
3821.99764 5.61089e-18
3824.00467 5.57113e-18
3826.00152 5.59722e-18
3827.99837 5.55440e-18
3829.99522 5.38570e-18
3832.00225 5.54978e-18
3833.99910 5.48170e-18
3835.99595 5.71453e-18
3838.00298 5.86055e-18
3839.99983 5.65562e-18
3841.99668 5.88498e-18
3844.00372 5.74860e-18
3846.00056 5.68221e-18
3847.99741 5.77099e-18
3850.00445 6.00510e-18
3852.00130 5.88427e-18
3853.99814 5.78969e-18
3855.99499 6.14180e-18
3858.00203 6.14332e-18
3859.99888 6.62002e-18
3861.99572 6.55518e-18
3864.00276 6.60234e-18
3865.99961 7.14465e-18
3867.99646 7.20823e-18
3870.00349 7.33069e-18
3872.00034 7.05267e-18
3873.99719 6.85200e-18
3876.00422 7.26390e-18
3878.00107 7.60355e-18
3879.99792 7.62767e-18
3881.99477 7.76938e-18
3884.00180 7.92657e-18
3885.99865 7.78928e-18
3887.99550 7.91782e-18
3890.00254 8.71578e-18
3891.99938 8.75376e-18
3893.99623 8.63617e-18
3896.00327 8.83199e-18
3898.00012 8.50783e-18
3899.99696 8.54256e-18
3902.00400 8.48360e-18
3904.00085 8.57755e-18
3905.99770 9.37140e-18
3908.00473 9.54745e-18
3910.00158 9.23902e-18
3911.99843 9.32291e-18
3913.99528 9.57170e-18
3916.00231 9.59162e-18
3917.99916 9.61602e-18
3919.99601 9.37730e-18
3922.00304 9.45145e-18
3923.99989 9.64800e-18
3925.99674 1.00550e-17
3928.00378 9.81746e-18
3930.00062 9.95048e-18
3931.99747 1.01870e-17
3934.00451 1.01015e-17
3936.00136 1.04774e-17
3937.99820 1.14158e-17
3939.99505 1.19682e-17
3942.00209 1.19877e-17
3943.99894 1.14551e-17
3945.99578 1.06403e-17
3948.00282 1.04483e-17
3949.99967 1.06324e-17
3951.99652 1.07851e-17
3954.00355 1.07840e-17
3956.00040 1.08768e-17
3957.99725 1.18412e-17
3960.00428 1.33121e-17
3962.00113 1.35998e-17
3963.99798 1.26574e-17
3965.99483 1.18112e-17
3968.00186 1.14168e-17
3969.99871 1.14803e-17
3971.99556 1.12546e-17
3974.00260 1.12436e-17
3975.99944 1.19090e-17
3977.99629 1.20351e-17
3980.00333 1.14855e-17
3982.00018 1.15189e-17
3983.99702 1.19518e-17
3986.00406 1.20274e-17
3988.00091 1.16687e-17
3989.99776 1.21846e-17
3992.00479 1.23210e-17
3994.00164 1.25114e-17
3995.99849 1.18427e-17
3997.99534 1.19552e-17
4000.00237 1.25888e-17
4001.99922 1.21999e-17
4003.99607 1.22565e-17
4006.00310 1.20882e-17
4007.99995 1.21664e-17
4009.99680 1.20071e-17
4012.00384 1.23880e-17
4014.00068 1.23614e-17
4015.99753 1.24825e-17
4018.00457 1.23034e-17
4020.00142 1.26137e-17
4021.99826 1.26711e-17
4023.99511 1.20409e-17
4026.00215 1.21558e-17
4027.99900 1.21459e-17
4029.99584 1.20888e-17
4032.00288 1.20521e-17
4033.99973 1.18778e-17
4035.99658 1.15752e-17
4038.00361 1.16038e-17
4040.00046 1.22456e-17
4041.99731 1.29047e-17
4044.00434 1.32605e-17
4046.00119 1.26947e-17
4047.99804 1.19955e-17
4049.99489 1.13510e-17
4052.00192 1.12453e-17
4053.99877 1.13483e-17
4055.99562 1.11480e-17
4058.00266 1.10983e-17
4059.99950 1.07994e-17
4061.99635 1.09208e-17
4064.00339 1.11676e-17
4066.00024 1.08364e-17
4067.99708 1.09407e-17
4070.00412 1.10209e-17
4072.00097 1.07556e-17
4073.99782 1.09515e-17
4076.00485 1.10177e-17
4078.00170 1.09778e-17
4079.99855 1.10317e-17
4081.99540 1.13721e-17
4084.00243 1.09428e-17
4085.99928 1.09848e-17
4087.99613 1.09007e-17
4090.00316 1.11359e-17
4092.00001 1.09957e-17
4093.99686 1.09327e-17
4096.00390 1.07327e-17
4098.00074 1.10539e-17
4099.99759 1.12157e-17
4102.00463 1.12074e-17
4104.00148 1.12499e-17
4105.99832 1.09044e-17
4107.99517 1.07687e-17
4110.00221 1.08435e-17
4111.99906 1.08959e-17
4113.99590 1.09099e-17
4116.00294 1.07818e-17
4117.99979 1.06886e-17
4119.99664 1.06236e-17
4122.00367 1.05449e-17
4124.00052 1.07547e-17
4125.99737 1.08318e-17
4128.00440 1.06979e-17
4130.00125 1.07558e-17
4131.99810 1.05281e-17
4133.99495 1.05013e-17
4136.00198 1.03106e-17
4137.99883 1.02860e-17
4139.99568 1.05253e-17
4142.00272 1.11959e-17
4143.99956 1.15590e-17
4145.99641 1.10145e-17
4148.00345 1.09291e-17
4150.00030 1.09463e-17
4151.99714 1.07572e-17
4154.00418 1.05015e-17
4156.00103 1.04173e-17
4157.99788 1.05332e-17
4160.00491 1.05496e-17
4162.00176 1.05329e-17
4163.99861 1.03548e-17
4165.99546 9.89332e-18
4168.00249 1.01447e-17
4169.99934 1.03477e-17
4171.99619 1.03388e-17
4174.00322 1.09787e-17
4176.00007 1.28328e-17
4177.99692 1.38768e-17
4180.00396 1.31904e-17
4182.00080 1.15228e-17
4183.99765 1.02082e-17
4186.00469 9.66612e-18
4188.00154 9.29051e-18
4189.99838 9.53296e-18
4191.99523 9.70930e-18
4194.00227 9.45747e-18
4195.99912 9.52893e-18
4197.99596 9.62625e-18
4200.00300 9.65453e-18
4201.99985 9.63381e-18
4203.99670 9.87284e-18
4206.00373 9.78813e-18
4208.00058 9.67284e-18
4209.99743 9.85053e-18
4212.00446 9.48166e-18
4214.00131 9.36166e-18
4215.99816 9.45030e-18
4218.00520 9.60729e-18
4220.00204 9.42746e-18
4221.99889 9.46126e-18
4223.99574 9.48421e-18
4226.00278 9.29030e-18
4227.99962 9.77223e-18
4229.99647 9.79936e-18
4232.00351 9.89365e-18
4234.00036 9.90626e-18
4235.99720 9.65098e-18
4238.00424 9.54975e-18
4240.00109 9.69076e-18
4241.99794 1.01130e-17
4244.00497 9.66540e-18
4246.00182 9.53827e-18
4247.99867 9.86113e-18
4249.99552 9.65170e-18
4252.00255 9.64189e-18
4253.99940 9.99247e-18
4255.99625 1.00225e-17
4258.00328 9.67519e-18
4260.00013 9.59276e-18
4261.99698 9.98505e-18
4264.00402 9.60284e-18
4266.00086 9.63395e-18
4267.99771 9.76960e-18
4270.00475 9.71468e-18
4272.00160 9.72629e-18
4273.99844 9.65412e-18
4275.99529 9.52590e-18
4278.00233 9.88665e-18
4279.99918 1.01026e-17
4281.99602 9.60319e-18
4284.00306 9.58478e-18
4285.99991 9.72695e-18
4287.99676 9.70797e-18
4290.00379 9.40618e-18
4292.00064 9.67866e-18
4293.99749 9.83232e-18
4296.00452 9.62339e-18
4298.00137 9.42992e-18
4299.99822 9.73206e-18
4301.99507 9.88212e-18
4304.00210 9.89302e-18
4305.99895 9.51023e-18
4307.99580 9.55300e-18
4310.00284 9.67335e-18
4311.99968 9.73021e-18
4313.99653 9.87770e-18
4316.00357 9.83758e-18
4318.00042 9.88815e-18
4319.99726 9.40686e-18
4322.00430 9.80862e-18
4324.00115 1.00538e-17
4325.99800 1.03992e-17
4327.99484 1.01105e-17
4330.00188 9.57288e-18
4331.99873 9.84155e-18
4333.99558 9.69209e-18
4336.00261 9.69871e-18
4337.99946 9.75257e-18
4339.99631 9.66855e-18
4342.00334 1.02472e-17
4344.00019 1.04155e-17
4345.99704 1.03281e-17
4348.00408 1.00111e-17
4350.00092 9.70750e-18
4351.99777 1.01208e-17
4354.00481 1.05050e-17
4356.00166 1.02451e-17
4357.99850 9.66620e-18
4359.99535 9.47620e-18
4362.00239 9.54190e-18
4363.99924 9.54441e-18
4365.99608 9.55479e-18
4368.00312 9.68096e-18
4369.99997 9.79301e-18
4371.99682 9.56077e-18
4374.00385 9.44606e-18
4376.00070 9.39341e-18
4377.99755 9.31454e-18
4380.00458 9.24215e-18
4382.00143 9.10556e-18
4383.99828 9.00750e-18
4385.99513 9.16126e-18
4388.00216 9.47116e-18
4389.99901 9.26362e-18
4391.99586 9.15465e-18
4394.00290 9.13231e-18
4395.99974 8.93869e-18
4397.99659 8.93581e-18
4400.00363 8.71935e-18
4402.00048 8.53056e-18
4403.99732 8.69824e-18
4406.00436 8.75292e-18
4408.00121 8.89091e-18
4409.99806 8.83411e-18
4411.99490 8.68674e-18
4414.00194 8.73916e-18
4415.99879 8.76950e-18
4417.99564 8.79983e-18
4420.00267 8.83017e-18
4421.99952 8.86049e-18
4423.99637 8.89081e-18
4426.00340 8.92113e-18
4428.00025 8.95144e-18
4429.99710 8.98175e-18
4432.00414 9.01204e-18
4434.00098 9.04233e-18
4435.99783 9.07263e-18
4437.99468 9.10291e-18
4440.00172 9.13320e-18
4441.99856 9.16347e-18
4443.99541 9.19374e-18
4446.00245 9.22400e-18
4447.99930 9.25426e-18
4449.99614 9.28452e-18
4452.00318 9.31477e-18
4454.00003 9.34502e-18
4455.99688 9.37525e-18
4458.00391 9.40548e-18
4460.00076 9.43572e-18
4461.99761 9.46594e-18
4464.00464 9.49616e-18
4466.00149 9.52637e-18
4467.99834 9.55659e-18
4469.99519 9.58679e-18
4472.00222 9.61698e-18
4473.99907 9.64718e-18
4475.99592 9.67737e-18
4478.00296 9.65631e-18
4479.99980 9.66310e-18
4481.99665 9.51433e-18
4484.00369 9.60795e-18
4486.00054 9.93459e-18
4487.99738 1.02051e-17
4490.00442 9.99960e-18
4492.00127 1.00281e-17
4493.99812 1.02205e-17
4495.99496 1.03189e-17
4498.00200 1.04965e-17
4499.99885 1.04560e-17
4501.99570 1.04215e-17
4504.00273 1.03285e-17
4505.99958 1.04797e-17
4507.99643 1.03033e-17
4510.00346 1.06221e-17
4512.00031 1.07461e-17
4513.99716 1.06788e-17
4516.00420 1.08064e-17
4518.00104 1.11262e-17
4519.99789 1.11945e-17
4522.00493 1.12573e-17
4524.00178 1.12454e-17
4525.99862 1.16319e-17
4527.99547 1.17542e-17
4530.00251 1.18529e-17
4531.99936 1.19393e-17
4533.99620 1.18576e-17
4536.00324 1.16413e-17
4538.00009 1.14477e-17
4539.99694 1.18096e-17
4542.00397 1.18983e-17
4544.00082 1.19490e-17
4545.99767 1.23038e-17
4548.00470 1.20416e-17
4550.00155 1.21477e-17
4551.99840 1.24969e-17
4553.99525 1.29450e-17
4556.00228 1.31921e-17
4557.99913 1.28778e-17
4559.99598 1.28492e-17
4562.00302 1.32019e-17
4563.99986 1.33352e-17
4565.99671 1.34553e-17
4568.00375 1.33635e-17
4570.00060 1.37743e-17
4571.99744 1.35930e-17
4574.00448 1.37410e-17
4576.00133 1.39948e-17
4577.99818 1.40259e-17
4579.99502 1.41167e-17
4582.00206 1.40123e-17
4583.99891 1.42709e-17
4585.99576 1.45889e-17
4588.00279 1.46975e-17
4589.99964 1.51618e-17
4591.99649 1.53547e-17
4594.00352 1.52297e-17
4596.00037 1.52674e-17
4597.99722 1.52972e-17
4600.00426 1.54844e-17
4602.00110 1.59616e-17
4603.99795 1.58677e-17
4605.99480 1.56096e-17
4608.00184 1.57512e-17
4609.99868 1.59748e-17
4611.99553 1.65559e-17
4614.00257 1.66930e-17
4615.99942 1.67097e-17
4617.99626 1.67448e-17
4620.00330 1.64360e-17
4622.00015 1.66396e-17
4623.99700 1.68799e-17
4626.00403 1.64308e-17
4628.00088 1.66468e-17
4629.99773 1.65552e-17
4632.00476 1.66495e-17
4634.00161 1.67385e-17
4635.99846 1.66045e-17
4637.99531 1.69359e-17
4640.00234 1.72734e-17
4641.99919 1.66639e-17
4643.99604 1.67337e-17
4646.00308 1.70174e-17
4647.99992 1.72011e-17
4649.99677 1.74114e-17
4652.00381 1.70701e-17
4654.00066 1.69434e-17
4655.99750 1.72206e-17
4658.00454 1.71894e-17
4660.00139 1.76137e-17
4661.99824 1.75537e-17
4663.99508 1.74023e-17
4666.00212 1.71113e-17
4667.99897 1.70168e-17
4669.99582 1.71368e-17
4672.00285 1.69236e-17
4673.99970 1.68034e-17
4675.99655 1.68558e-17
4678.00358 1.66754e-17
4680.00043 1.64857e-17
4681.99728 1.64764e-17
4684.00432 1.66083e-17
4686.00116 1.64421e-17
4687.99801 1.59246e-17
4690.00505 1.58037e-17
4692.00190 1.57026e-17
4693.99874 1.57662e-17
4695.99559 1.57896e-17
4698.00263 1.57718e-17
4699.99948 1.54064e-17
4701.99632 1.51865e-17
4704.00336 1.51696e-17
4706.00021 1.48530e-17
4707.99706 1.46835e-17
4710.00409 1.45278e-17
4712.00094 1.45825e-17
4713.99779 1.47144e-17
4716.00482 1.45755e-17
4718.00167 1.45103e-17
4719.99852 1.44398e-17
4721.99537 1.41337e-17
4724.00240 1.42995e-17
4725.99925 1.38893e-17
4727.99610 1.37403e-17
4730.00314 1.37340e-17
4731.99998 1.38354e-17
4733.99683 1.34577e-17
4736.00387 1.34993e-17
4738.00072 1.33107e-17
4739.99756 1.33729e-17
4742.00460 1.34966e-17
4744.00145 1.32744e-17
4745.99830 1.29140e-17
4747.99514 1.28992e-17
4750.00218 1.28383e-17
4751.99903 1.26399e-17
4753.99588 1.24555e-17
4756.00291 1.23077e-17
4757.99976 1.24410e-17
4759.99661 1.24630e-17
4762.00364 1.23753e-17
4764.00049 1.24086e-17
4765.99734 1.22547e-17
4768.00438 1.20679e-17
4770.00122 1.19146e-17
4771.99807 1.19600e-17
4773.99492 1.19222e-17
4776.00196 1.13520e-17
4777.99880 1.12989e-17
4779.99565 1.13469e-17
4782.00269 1.09119e-17
4783.99954 1.07086e-17
4785.99638 1.07198e-17
4788.00342 1.08132e-17
4790.00027 1.06396e-17
4791.99712 1.04110e-17
4794.00415 1.06048e-17
4796.00100 1.09133e-17
4797.99785 1.04923e-17
4800.00488 1.02500e-17
4802.00173 1.04691e-17
4803.99858 1.05604e-17
4805.99543 1.07041e-17
4808.00246 1.06213e-17
4809.99931 1.04078e-17
4811.99616 1.04346e-17
4814.00320 1.04818e-17
4816.00004 1.05319e-17
4817.99689 1.05717e-17
4820.00393 1.04686e-17
4822.00078 1.05363e-17
4823.99762 1.06682e-17
4826.00466 1.06900e-17
4828.00151 1.06910e-17
4829.99836 1.08033e-17
4831.99520 1.07422e-17
4834.00224 1.10852e-17
4835.99909 1.10672e-17
4837.99594 1.07843e-17
4840.00297 1.07256e-17
4841.99982 1.10505e-17
4843.99667 1.10568e-17
4846.00370 1.11586e-17
4848.00055 1.14459e-17
4849.99740 1.14488e-17
4852.00444 1.11252e-17
4854.00128 1.08858e-17
4855.99813 1.09276e-17
4857.99498 1.10147e-17
4860.00202 1.10857e-17
4861.99886 1.11448e-17
4863.99571 1.10023e-17
4866.00275 1.09463e-17
4867.99960 1.08508e-17
4869.99644 1.04202e-17
4872.00348 1.06829e-17
4874.00033 1.06462e-17
4875.99718 1.01299e-17
4878.00421 1.03418e-17
4880.00106 1.04707e-17
4881.99791 1.02043e-17
4884.00494 1.00243e-17
4886.00179 1.01239e-17
4887.99864 1.02240e-17
4889.99549 1.00678e-17
4892.00252 1.04442e-17
4893.99937 1.08643e-17
4895.99622 1.06463e-17
4898.00326 1.03981e-17
4900.00010 1.04306e-17
4901.99695 1.03302e-17
4904.00399 1.05929e-17
4906.00084 1.06529e-17
4907.99768 1.06625e-17
4910.00472 1.06564e-17
4912.00157 1.09901e-17
4913.99842 1.09047e-17
4915.99526 1.09383e-17
4918.00230 1.08030e-17
4919.99915 1.07922e-17
4921.99600 1.11547e-17
4924.00303 1.13641e-17
4925.99988 1.11037e-17
4927.99673 1.13554e-17
4930.00376 1.15982e-17
4932.00061 1.13525e-17
4933.99746 1.16038e-17
4936.00450 1.17189e-17
4938.00134 1.18339e-17
4939.99819 1.19490e-17
4941.99504 1.20640e-17
4944.00208 1.21790e-17
4945.99892 1.22940e-17
4947.99577 1.24089e-17
4950.00281 1.25239e-17
4951.99966 1.26388e-17
4953.99650 1.27538e-17
4956.00354 1.28687e-17
4958.00039 1.29835e-17
4959.99724 1.30984e-17
4962.00427 1.32132e-17
4964.00112 1.33281e-17
4965.99797 1.34429e-17
4968.00500 1.35577e-17
4970.00185 1.36724e-17
4971.99870 1.37872e-17
4973.99555 1.37572e-17
4976.00258 1.32184e-17
4977.99943 1.32551e-17
4979.99628 1.35506e-17
4982.00332 1.35157e-17
4984.00016 1.32493e-17
4985.99701 1.31408e-17
4988.00405 1.34465e-17
4990.00090 1.32465e-17
4991.99774 1.31341e-17
4994.00478 1.30366e-17
4996.00163 1.27341e-17
4997.99848 1.25488e-17
4999.99532 1.24280e-17
5002.00236 1.25416e-17
5003.99921 1.24633e-17
5005.99606 1.22450e-17
5008.00309 1.21311e-17
5009.99994 1.22957e-17
5011.99679 1.20416e-17
5014.00382 1.19017e-17
5016.00067 1.17389e-17
5017.99752 1.13861e-17
5020.00456 1.11020e-17
5022.00140 1.06595e-17
5023.99825 1.09087e-17
5025.99510 1.10725e-17
5028.00214 1.07577e-17
5029.99898 1.08995e-17
5031.99583 1.06681e-17
5034.00287 1.06223e-17
5035.99972 1.05765e-17
5037.99656 1.05307e-17
5040.00360 1.04850e-17
5042.00045 1.04392e-17
5043.99730 1.03935e-17
5046.00433 1.03477e-17
5048.00118 1.03020e-17
5049.99803 1.02562e-17
5051.99488 1.02105e-17
5054.00191 1.01648e-17
5055.99876 1.01191e-17
5057.99561 1.00734e-17
5060.00264 1.00277e-17
5061.99949 9.98203e-18
5063.99634 9.93634e-18
5066.00338 9.89068e-18
5068.00022 9.84502e-18
5069.99707 9.79936e-18
5072.00411 9.75371e-18
5074.00096 9.65102e-18
5075.99780 9.96504e-18
5077.99465 9.95255e-18
5080.00169 9.99650e-18
5081.99854 1.01300e-17
5083.99538 1.01497e-17
5086.00242 1.01694e-17
5087.99927 1.01891e-17
5089.99612 1.02089e-17
5092.00315 1.02286e-17
5094.00000 1.02483e-17
5095.99685 1.02680e-17
5098.00388 1.02877e-17
5100.00073 1.03075e-17
5101.99758 1.03272e-17
5104.00462 1.03469e-17
5106.00146 1.03666e-17
5107.99831 1.03863e-17
5109.99516 1.04060e-17
5112.00220 1.04257e-17
5113.99904 1.04454e-17
5115.99589 1.04651e-17
5118.00293 1.04847e-17
5119.99978 1.05044e-17
5121.99662 1.06358e-17
5124.00366 1.07041e-17
5126.00051 1.06787e-17
5127.99736 1.06491e-17
5130.00439 1.06856e-17
5132.00124 1.09180e-17
5133.99809 1.10553e-17
5136.00512 1.10169e-17
5138.00197 1.08704e-17
5139.99882 1.06996e-17
5141.99567 1.09188e-17
5144.00270 1.13301e-17
5145.99955 1.12919e-17
5147.99640 1.08787e-17
5150.00344 1.10045e-17
5152.00028 1.12746e-17
5153.99713 1.11360e-17
5156.00417 1.10383e-17
5158.00102 1.10401e-17
5159.99786 1.12069e-17
5162.00490 1.13602e-17
5164.00175 1.12034e-17
5165.99860 1.11586e-17
5167.99544 1.13052e-17
5170.00248 1.15797e-17
5171.99933 1.15372e-17
5173.99618 1.14142e-17
5176.00321 1.14408e-17
5178.00006 1.14692e-17
5179.99691 1.15222e-17
5182.00394 1.17143e-17
5184.00079 1.16946e-17
5185.99764 1.15418e-17
5188.00468 1.14588e-17
5190.00152 1.11945e-17
5191.99837 1.14560e-17
5193.99522 1.19759e-17
5196.00226 1.18728e-17
5197.99910 1.16666e-17
5199.99595 1.18186e-17
5202.00299 1.18111e-17
5203.99984 1.18350e-17
5205.99668 1.20364e-17
5208.00372 1.21555e-17
5210.00057 1.22190e-17
5211.99742 1.23144e-17
5214.00445 1.22973e-17
5216.00130 1.26226e-17
5217.99815 1.25133e-17
5219.99500 1.24691e-17
5222.00203 1.25616e-17
5223.99888 1.26377e-17
5225.99573 1.28974e-17
5228.00276 1.29543e-17
5229.99961 1.28170e-17
5231.99646 1.27443e-17
5234.00350 1.28361e-17
5236.00034 1.30104e-17
5237.99719 1.29361e-17
5240.00423 1.30405e-17
5242.00108 1.33171e-17
5243.99792 1.32368e-17
5245.99477 1.32525e-17
5248.00181 1.31620e-17
5249.99866 1.33276e-17
5251.99550 1.37322e-17
5254.00254 1.38113e-17
5255.99939 1.36857e-17
5257.99624 1.35015e-17
5260.00327 1.36305e-17
5262.00012 1.37416e-17
5263.99697 1.38225e-17
5266.00400 1.39259e-17
5268.00085 1.43001e-17
5269.99770 1.43294e-17
5272.00474 1.39899e-17
5274.00158 1.41823e-17
5275.99843 1.47170e-17
5277.99528 1.46126e-17
5280.00232 1.46894e-17
5281.99916 1.49180e-17
5283.99601 1.47379e-17
5286.00305 1.47540e-17
5287.99990 1.48687e-17
5289.99674 1.50171e-17
5292.00378 1.51498e-17
5294.00063 1.55479e-17
5295.99748 1.53558e-17
5298.00451 1.57299e-17
5300.00136 1.57257e-17
5301.99821 1.55411e-17
5303.99506 1.55983e-17
5306.00209 1.55261e-17
5307.99894 1.56727e-17
5309.99579 1.60034e-17
5312.00282 1.54623e-17
5313.99967 1.56470e-17
5315.99652 1.57793e-17
5318.00356 1.59607e-17
5320.00040 1.60020e-17
5321.99725 1.61184e-17
5324.00429 1.61524e-17
5326.00114 1.62425e-17
5327.99798 1.65699e-17
5330.00502 1.65984e-17
5332.00187 1.65859e-17
5333.99872 1.63635e-17
5335.99556 1.61738e-17
5338.00260 1.66314e-17
5339.99945 1.68869e-17
5341.99630 1.68062e-17
5344.00333 1.70648e-17
5346.00018 1.72500e-17
5347.99703 1.70208e-17
5350.00406 1.67754e-17
5352.00091 1.73898e-17
5353.99776 1.71211e-17
