# wavelength flux
3510.00328 2.98379e-18
3511.99712 4.97100e-18
3514.00108 5.66369e-18
3516.00504 2.41423e-18
3517.99887 4.16780e-18
3520.00283 1.71526e-18
3521.99667 2.96182e-18
3524.00063 3.61258e-18
3526.00459 4.66181e-18
3527.99842 3.48127e-18
3530.00238 2.30106e-18
3531.99622 1.12118e-18
3534.00018 1.12102e-18
3536.00413 1.83792e-18
3537.99797 4.59686e-18
3540.00193 2.42750e-18
3541.99577 2.95214e-18
3543.99972 5.51358e-18
3546.00368 2.23715e-18
3547.99752 8.10442e-20
3550.00148 1.45086e-18
3551.99531 2.28084e-18
3553.99927 5.12770e-18
3556.00323 4.89543e-18
3557.99707 1.44246e-18
3560.00102 1.19973e-18
3562.00498 2.85846e-18
3563.99882 -7.96353e-20
3566.00278 5.06563e-18
3567.99661 5.06993e-18
3570.00057 1.88718e-18
3572.00453 3.44378e-18
3573.99837 3.68699e-18
3576.00232 2.85832e-18
3577.99616 2.60324e-18
3580.00012 4.31037e-18
3582.00408 5.57133e-18
3583.99791 2.43047e-18
3586.00187 1.33655e-18
3587.99571 4.10181e-18
3589.99967 2.64487e-18
3592.00363 2.52876e-18
3593.99746 3.64794e-18
3596.00142 1.61079e-18
3597.99526 3.40363e-18
3599.99922 3.88629e-18
3602.00317 5.93615e-18
3603.99701 2.16467e-18
3606.00097 6.05525e-18
3608.00493 3.83578e-18
3609.99876 3.88859e-18
3612.00272 3.45105e-18
3613.99656 4.94981e-18
3616.00052 5.65152e-18
3618.00448 4.78919e-18
3619.99831 3.94457e-18
3622.00227 3.81653e-18
3623.99611 6.14709e-18
3626.00007 3.21246e-18
3628.00402 4.12322e-18
3629.99786 1.90756e-18
3632.00182 3.30143e-18
3633.99566 3.97563e-18
3635.99961 3.46993e-18
3638.00357 3.40835e-18
3639.99741 5.43057e-18
3642.00137 3.45790e-18
3643.99520 3.03250e-18
3645.99916 5.14550e-18
3648.00312 3.44647e-18
3649.99696 1.19598e-18
3652.00091 3.64056e-18
3654.00487 3.59673e-18
3655.99871 3.55291e-18
3658.00267 3.55250e-18
3659.99650 2.61417e-18
3662.00046 1.67608e-18
3664.00442 7.38211e-19
3665.99826 7.38126e-19
3668.00221 3.11573e-18
3669.99605 3.24376e-18
3672.00001 3.91668e-18
3674.00397 5.06204e-18
3675.99780 4.41846e-18
3678.00176 2.59679e-18
3679.99560 1.61681e-18
3681.99956 4.26710e-18
3684.00352 2.88594e-18
3685.99735 3.31230e-18
3688.00131 4.01929e-18
3689.99515 4.28899e-18
3691.99911 3.72880e-18
3694.00306 3.54094e-18
3695.99690 4.95227e-18
3698.00086 5.85649e-18
3700.00482 3.62305e-18
3701.99865 3.39355e-18
3704.00261 1.85099e-18
3705.99645 4.17856e-18
3708.00041 2.66907e-18
3710.00437 3.98533e-18
3711.99820 3.20540e-18
3714.00216 3.27872e-18
3715.99600 4.10346e-18
3717.99996 5.14722e-18
3720.00391 2.98427e-18
3721.99775 1.92751e-18
3724.00171 3.52794e-18
3725.99554 2.04079e-18
3727.99950 3.80217e-18
3730.00346 3.11579e-18
3731.99730 3.86015e-18
3734.00126 2.70662e-18
3735.99509 4.78698e-18
3737.99905 2.87645e-18
3740.00301 3.84350e-18
3741.99685 4.13072e-18
3744.00080 4.09583e-18
3746.00476 4.21021e-18
3747.99860 3.46361e-18
3750.00256 3.79265e-18
3751.99639 3.57547e-18
3754.00035 2.95451e-18
3756.00431 2.89329e-18
3757.99815 4.09453e-18
3760.00211 3.99870e-18
3761.99594 3.75652e-18
3763.99990 4.83021e-18
3766.00386 4.88322e-18
3767.99770 3.19887e-18
3770.00165 3.71341e-18
3771.99549 4.62137e-18
3773.99945 3.76716e-18
3776.00341 3.44046e-18
3777.99724 3.07302e-18
3780.00120 5.12112e-18
3781.99504 6.15070e-18
3783.99900 4.17467e-18
3786.00295 3.92491e-18
3787.99679 3.05574e-18
3790.00075 4.10474e-18
3792.00471 4.96970e-18
3793.99854 5.10796e-18
3796.00250 3.98473e-18
3797.99634 4.81083e-18
3800.00030 3.97027e-18
3802.00426 3.50448e-18
3803.99809 4.24251e-18
3806.00205 5.34129e-18
3807.99589 3.60029e-18
3809.99984 3.54946e-18
3812.00380 3.70352e-18
3813.99764 4.08143e-18
3816.00160 4.68288e-18
3817.99543 4.92133e-18
3819.99939 4.36425e-18
3822.00335 4.61928e-18
3823.99719 3.71026e-18
3826.00115 4.43872e-18
3828.00510 3.28862e-18
3829.99894 3.78567e-18
3832.00290 4.41504e-18
3833.99674 4.46937e-18
3836.00069 4.85305e-18
3838.00465 5.24158e-18
3839.99849 4.47103e-18
3842.00245 4.56887e-18
3843.99628 5.02555e-18
3846.00024 5.17848e-18
3848.00420 5.77765e-18
3849.99804 4.58686e-18
3852.00199 5.05318e-18
3853.99583 4.80730e-18
3855.99979 5.64807e-18
3858.00375 4.46800e-18
3859.99759 4.19949e-18
3862.00154 4.30746e-18
3863.99538 3.75654e-18
3865.99934 5.37646e-18
3868.00330 4.39430e-18
3869.99713 6.07836e-18
3872.00109 5.69989e-18
3874.00505 4.71436e-18
3875.99889 6.27293e-18
3878.00284 5.82951e-18
3879.99668 5.43066e-18
3882.00064 6.08449e-18
3884.00460 6.27189e-18
3885.99843 6.25911e-18
3888.00239 7.20729e-18
3889.99623 6.27441e-18
3892.00019 5.52567e-18
3894.00414 6.45896e-18
3895.99798 5.14677e-18
3898.00194 5.37300e-18
3899.99578 6.66815e-18
3901.99973 6.45963e-18
3904.00369 4.97755e-18
3905.99753 4.95324e-18
3908.00149 3.94870e-18
3909.99532 5.54404e-18
3911.99928 7.19549e-18
3914.00324 5.95771e-18
3915.99708 6.38562e-18
3918.00104 5.48962e-18
3920.00499 5.81107e-18
3921.99883 5.09858e-18
3924.00279 6.29873e-18
3925.99663 7.02621e-18
3928.00058 6.58243e-18
3930.00454 6.80170e-18
3931.99838 5.89466e-18
3934.00234 5.91634e-18
3935.99617 5.52176e-18
3938.00013 4.83925e-18
3940.00409 6.31488e-18
3941.99793 6.12016e-18
3944.00189 7.27695e-18
3945.99572 5.47105e-18
3947.99968 7.10758e-18
3950.00364 7.33316e-18
3951.99748 5.67306e-18
3954.00143 6.28373e-18
3955.99527 6.34739e-18
3957.99923 6.26938e-18
3960.00319 6.27861e-18
3961.99702 5.61845e-18
3964.00098 5.01086e-18
3966.00494 5.57920e-18
3967.99878 5.10052e-18
3970.00273 6.55370e-18
3971.99657 5.97028e-18
3974.00053 6.63859e-18
3976.00449 6.55034e-18
3977.99832 5.77144e-18
3980.00228 5.81157e-18
3981.99612 5.26614e-18
3984.00008 5.96971e-18
3986.00403 5.84655e-18
3987.99787 5.62375e-18
3990.00183 5.36053e-18
3991.99567 5.83326e-18
3993.99962 6.07882e-18
3996.00358 4.56767e-18
3997.99742 4.95583e-18
4000.00138 7.34902e-18
4001.99521 5.19279e-18
4003.99917 6.87596e-18
4006.00313 5.36195e-18
4007.99697 6.44082e-18
4010.00093 6.52486e-18
4012.00488 6.34044e-18
4013.99872 5.17901e-18
4016.00268 6.30433e-18
4017.99652 4.96340e-18
4020.00047 5.06952e-18
4022.00443 6.79379e-18
4023.99827 5.91485e-18
4026.00223 7.05127e-18
4027.99606 7.33414e-18
4030.00002 6.65466e-18
4032.00398 6.40293e-18
4033.99782 5.41425e-18
4036.00178 6.00219e-18
4037.99561 7.46522e-18
4039.99957 6.57183e-18
4042.00353 6.25479e-18
4043.99737 5.44544e-18
4046.00132 4.63622e-18
4047.99516 4.63588e-18
4049.99912 4.34617e-18
4052.00308 4.96502e-18
4053.99691 5.28823e-18
4056.00087 5.65177e-18
4058.00483 5.59838e-18
4059.99867 5.87258e-18
4062.00262 5.20120e-18
4063.99646 5.41049e-18
4066.00042 6.40609e-18
4068.00438 6.10325e-18
4069.99821 4.93401e-18
4072.00217 4.42566e-18
4073.99601 6.14132e-18
4075.99997 5.69518e-18
4078.00392 4.41670e-18
4079.99776 5.09714e-18
4082.00172 5.33929e-18
4083.99556 5.86341e-18
4085.99951 5.95439e-18
4088.00347 5.55299e-18
4089.99731 5.52233e-18
4092.00127 6.30795e-18
4093.99510 5.51089e-18
4095.99906 5.22439e-18
4098.00302 4.94928e-18
4099.99686 5.86324e-18
4102.00082 4.88028e-18
4104.00477 6.23654e-18
4105.99861 6.71021e-18
4108.00257 5.74746e-18
4109.99641 5.01917e-18
4112.00036 5.88843e-18
4114.00432 5.27684e-18
4115.99816 5.38195e-18
4118.00212 6.02117e-18
4119.99595 6.49054e-18
4121.99991 5.98039e-18
4124.00387 6.52957e-18
4125.99771 5.98395e-18
4128.00166 6.44074e-18
4129.99550 5.43783e-18
4131.99946 6.38667e-18
4134.00342 5.91077e-18
4135.99726 5.21133e-18
4138.00121 5.74809e-18
4139.99505 5.22862e-18
4141.99901 6.47204e-18
4144.00297 6.42177e-18
4145.99680 6.62119e-18
4148.00076 6.85601e-18
4150.00472 5.31310e-18
4151.99856 6.08637e-18
4154.00251 5.68066e-18
4155.99635 7.01177e-18
4158.00031 7.08491e-18
4160.00427 6.17057e-18
4161.99810 7.43743e-18
4164.00206 6.82372e-18
4165.99590 5.94846e-18
4167.99986 5.42550e-18
4170.00382 5.12442e-18
4171.99765 5.86502e-18
4174.00161 6.33648e-18
4175.99545 6.71610e-18
4177.99941 6.05398e-18
4180.00336 7.40748e-18
4181.99720 5.57841e-18
4184.00116 5.27153e-18
4186.00512 6.40767e-18
4187.99895 6.55953e-18
4190.00291 6.44332e-18
4191.99675 7.12994e-18
4194.00071 6.12335e-18
4196.00466 6.37070e-18
4197.99850 6.89699e-18
4200.00246 5.61014e-18
4201.99630 5.89974e-18
4204.00025 7.07885e-18
4206.00421 6.45975e-18
4207.99805 7.03455e-18
4210.00201 6.26787e-18
4211.99584 6.17506e-18
4213.99980 6.48937e-18
4216.00376 6.20894e-18
4217.99760 5.97039e-18
4220.00155 6.09727e-18
4221.99539 5.71972e-18
4223.99935 6.44072e-18
4226.00331 6.99786e-18
4227.99714 6.32785e-18
4230.00110 6.34446e-18
4232.00506 6.00530e-18
4233.99890 6.24574e-18
4236.00286 6.16994e-18
4237.99669 6.66576e-18
4240.00065 5.78460e-18
4242.00461 6.63321e-18
4243.99845 6.32506e-18
4246.00240 6.56488e-18
4247.99624 7.77517e-18
4250.00020 6.62307e-18
4252.00416 6.41579e-18
4253.99799 5.93555e-18
4256.00195 5.65811e-18
4257.99579 6.24862e-18
4259.99975 7.16714e-18
4262.00371 6.36023e-18
4263.99754 6.90852e-18
4266.00150 7.11356e-18
4267.99534 6.31213e-18
4269.99929 6.45065e-18
4272.00325 5.76729e-18
4273.99709 5.81001e-18
4276.00105 6.83094e-18
4277.99489 6.63988e-18
4279.99884 6.87303e-18
4282.00280 5.86203e-18
4283.99664 5.89427e-18
4286.00060 6.32776e-18
4288.00455 6.24192e-18
4289.99839 6.42275e-18
4292.00235 5.83259e-18
4293.99619 6.40516e-18
4296.00014 6.50043e-18
4298.00410 5.84436e-18
4299.99794 5.69950e-18
4302.00190 6.31750e-18
4303.99573 6.41925e-18
4305.99969 5.94185e-18
4308.00365 6.61992e-18
4309.99749 7.05890e-18
4312.00144 6.08795e-18
4313.99528 5.80933e-18
4315.99924 6.34565e-18
4318.00320 6.52348e-18
4319.99704 6.28223e-18
4322.00099 6.01432e-18
4324.00495 6.28421e-18
4325.99879 5.57398e-18
4328.00275 6.85647e-18
4329.99658 6.32120e-18
4332.00054 6.46741e-18
4334.00450 5.89492e-18
4335.99834 6.22771e-18
4338.00229 6.31980e-18
4339.99613 7.15355e-18
4342.00009 6.72049e-18
4344.00405 5.83295e-18
4345.99788 5.90355e-18
4348.00184 5.89793e-18
4349.99568 6.67736e-18
4351.99964 7.26250e-18
4354.00360 5.45262e-18
4355.99743 5.75917e-18
4358.00139 7.39188e-18
4360.00535 6.90915e-18
4361.99919 6.32267e-18
4364.00314 6.08418e-18
4365.99698 5.32309e-18
4368.00094 7.05340e-18
4370.00490 7.09978e-18
4371.99873 6.88579e-18
4374.00269 6.64080e-18
4375.99653 6.23636e-18
4378.00049 6.89453e-18
4380.00444 6.53582e-18
4381.99828 6.80634e-18
4384.00224 7.04445e-18
4385.99608 7.05604e-18
4388.00003 6.97149e-18
4390.00399 6.61015e-18
4391.99783 6.37002e-18
4394.00179 7.50862e-18
4395.99562 7.17990e-18
4397.99958 8.05450e-18
4400.00354 7.18227e-18
4401.99738 6.99005e-18
4404.00133 7.24552e-18
4405.99517 6.85861e-18
4407.99913 6.90921e-18
4410.00309 6.69165e-18
4411.99693 8.57004e-18
4414.00088 8.20128e-18
4416.00484 7.17920e-18
4417.99868 7.08278e-18
4420.00264 7.48870e-18
4421.99647 8.07600e-18
4424.00043 8.33574e-18
4426.00439 8.59065e-18
4427.99823 7.74867e-18
4430.00218 6.83744e-18
4431.99602 7.67897e-18
4433.99998 8.33121e-18
4436.00394 7.85102e-18
4437.99777 8.39163e-18
4440.00173 8.70548e-18
4441.99557 8.58803e-18
4443.99953 8.75839e-18
4446.00349 8.23245e-18
4447.99732 8.12262e-18
4450.00128 8.45652e-18
4451.99512 9.01415e-18
4453.99907 8.81776e-18
4456.00303 7.84477e-18
4457.99687 9.12206e-18
4460.00083 7.92862e-18
4462.00479 8.60531e-18
4463.99862 8.91850e-18
4466.00258 9.32155e-18
4467.99642 9.97289e-18
4470.00038 9.80118e-18
4472.00433 8.38457e-18
4473.99817 8.72940e-18
4476.00213 8.64953e-18
4477.99597 8.74063e-18
4479.99992 8.88091e-18
4482.00388 9.05145e-18
4483.99772 8.59017e-18
4486.00168 8.21233e-18
4487.99551 8.94807e-18
4489.99947 9.59595e-18
4492.00343 9.01864e-18
4493.99727 1.09768e-17
4496.00122 1.01058e-17
4498.00518 9.60204e-18
4499.99902 9.62599e-18
4502.00298 1.09537e-17
4503.99681 1.02052e-17
4506.00077 1.04030e-17
4508.00473 9.73554e-18
4509.99857 9.26753e-18
4512.00253 9.95658e-18
4513.99636 1.05132e-17
4516.00032 1.03580e-17
4518.00428 1.00029e-17
4519.99812 1.06516e-17
4522.00207 1.09244e-17
4523.99591 1.03340e-17
4525.99987 1.01628e-17
4528.00383 1.05754e-17
4529.99766 1.05465e-17
4532.00162 1.00710e-17
4533.99546 1.11580e-17
4535.99942 1.04643e-17
4538.00338 1.12938e-17
4539.99721 9.72405e-18
4542.00117 1.09400e-17
4543.99501 1.11258e-17
4545.99896 1.08293e-17
4548.00292 1.03460e-17
4549.99676 1.05682e-17
4552.00072 1.08765e-17
4554.00468 1.10591e-17
4555.99851 9.97891e-18
4558.00247 1.03252e-17
4559.99631 9.58343e-18
4562.00027 1.02382e-17
4564.00422 1.05458e-17
4565.99806 1.02574e-17
4568.00202 1.03339e-17
4569.99586 9.52121e-18
4571.99981 9.40335e-18
4574.00377 1.02764e-17
4575.99761 9.90053e-18
4578.00157 9.37056e-18
4579.99540 1.02483e-17
4581.99936 1.01886e-17
4584.00332 1.02012e-17
4585.99716 9.93903e-18
4588.00112 9.83679e-18
4589.99495 1.03962e-17
4591.99891 1.04522e-17
4594.00287 1.03448e-17
4595.99671 1.01339e-17
4598.00066 9.80183e-18
4600.00462 1.03599e-17
4601.99846 1.02377e-17
4604.00242 1.06908e-17
4605.99625 1.03350e-17
4608.00021 9.42172e-18
4610.00417 1.04598e-17
4611.99801 9.76604e-18
4614.00196 9.91058e-18
4615.99580 1.00588e-17
4617.99976 9.90463e-18
4620.00372 9.33488e-18
4621.99755 1.02957e-17
4624.00151 1.03323e-17
4625.99535 9.94850e-18
4627.99931 9.38649e-18
4630.00326 9.51764e-18
4631.99710 1.02412e-17
4634.00106 9.72684e-18
4636.00502 9.51040e-18
4637.99885 9.47288e-18
4640.00281 9.45845e-18
4641.99665 1.03434e-17
4644.00061 9.57576e-18
4646.00457 9.89905e-18
4647.99840 9.62851e-18
4650.00236 9.09857e-18
4651.99620 9.09929e-18
4654.00016 1.01419e-17
4656.00411 9.48345e-18
4657.99795 9.20861e-18
4660.00191 9.65739e-18
4661.99575 8.85918e-18
4663.99970 9.44171e-18
4666.00366 9.94357e-18
4667.99750 9.75254e-18
4670.00146 9.18541e-18
4671.99529 9.07324e-18
4673.99925 9.27983e-18
4676.00321 9.60741e-18
4677.99705 9.69798e-18
4680.00101 9.63644e-18
4682.00496 9.37696e-18
4683.99880 9.19425e-18
4686.00276 8.88054e-18
4687.99659 9.59632e-18
4690.00055 9.73822e-18
4692.00451 9.61961e-18
4693.99835 1.00960e-17
4696.00231 1.01563e-17
4697.99614 9.98963e-18
4700.00010 9.61539e-18
4702.00406 9.76259e-18
4703.99790 9.18433e-18
4706.00185 9.04809e-18
4707.99569 9.94072e-18
4709.99965 9.64894e-18
4712.00361 9.53622e-18
4713.99744 8.85275e-18
4716.00140 9.05488e-18
4717.99524 9.62678e-18
4719.99920 8.98555e-18
4722.00316 8.66947e-18
4723.99699 9.01966e-18
4726.00095 8.96616e-18
4728.00491 8.73447e-18
4729.99874 9.96037e-18
4732.00270 8.40680e-18
4733.99654 8.28851e-18
4736.00050 8.94388e-18
4738.00446 1.00316e-17
4739.99829 9.90425e-18
4742.00225 9.63540e-18
4743.99609 8.37585e-18
4746.00005 8.87922e-18
4748.00400 8.78433e-18
4749.99784 9.30600e-18
4752.00180 9.41070e-18
4753.99564 8.66973e-18
4755.99959 8.95301e-18
4758.00355 8.81963e-18
4759.99739 8.09550e-18
4762.00135 8.00780e-18
4763.99518 8.60273e-18
4765.99914 8.36283e-18
4768.00310 8.46696e-18
4769.99694 8.49585e-18
4772.00090 9.38578e-18
4774.00485 9.14568e-18
4775.99869 9.91223e-18
4778.00265 9.28730e-18
4779.99649 9.43365e-18
4782.00044 9.05334e-18
4784.00440 9.21666e-18
4785.99824 9.56993e-18
4788.00220 9.39340e-18
4789.99603 1.01520e-17
4791.99999 8.82543e-18
4794.00395 8.95541e-18
4795.99779 9.82745e-18
4798.00174 9.14736e-18
4799.99558 9.48985e-18
4801.99954 8.84406e-18
4804.00350 9.17679e-18
4805.99733 9.55012e-18
4808.00129 1.01901e-17
4810.00525 1.00079e-17
4811.99909 8.90360e-18
4814.00304 8.74043e-18
4815.99688 9.15845e-18
4818.00084 9.85934e-18
4820.00480 9.27040e-18
4821.99863 9.09167e-18
4824.00259 9.42394e-18
4825.99643 9.68095e-18
4828.00039 9.30768e-18
4830.00435 8.88040e-18
4831.99818 9.10438e-18
4834.00214 1.03053e-17
4835.99598 1.01644e-17
4837.99994 9.71945e-18
4840.00389 9.47610e-18
4841.99773 9.70348e-18
4844.00169 9.67608e-18
4845.99553 9.43534e-18
4847.99948 9.14526e-18
4850.00344 8.86863e-18
4851.99728 9.13280e-18
4854.00124 9.82680e-18
4855.99507 9.72456e-18
4857.99903 9.66570e-18
4860.00299 9.48538e-18
4861.99683 9.72409e-18
4864.00079 9.07526e-18
4866.00474 9.14462e-18
4867.99858 8.92811e-18
4870.00254 9.96721e-18
4871.99637 9.01547e-18
4874.00033 9.43825e-18
4876.00429 9.71259e-18
4877.99813 9.10219e-18
4880.00209 8.92670e-18
4881.99592 9.07473e-18
4883.99988 9.57455e-18
4886.00384 9.39653e-18
4887.99768 8.73831e-18
4890.00163 8.49445e-18
4891.99547 9.19882e-18
4893.99943 8.48444e-18
4896.00339 8.39225e-18
4897.99722 9.16733e-18
4900.00118 8.92390e-18
4902.00514 8.74770e-18
4903.99898 8.54361e-18
4906.00294 8.58843e-18
4907.99677 8.73461e-18
4910.00073 8.75868e-18
4912.00469 9.09641e-18
4913.99852 8.82698e-18
4916.00248 8.68824e-18
4917.99632 9.11351e-18
4920.00028 8.98083e-18
4922.00424 8.99208e-18
4923.99807 8.58049e-18
4926.00203 8.78582e-18
4927.99587 9.28143e-18
4929.99983 7.91302e-18
4932.00378 8.59123e-18
4933.99762 8.96088e-18
4936.00158 9.35109e-18
4937.99542 8.86642e-18
4939.99937 9.23326e-18
4942.00333 8.92318e-18
4943.99717 9.07596e-18
4946.00113 8.84517e-18
4948.00509 8.46094e-18
4949.99892 8.85157e-18
4952.00288 8.96209e-18
4953.99672 8.91628e-18
4956.00068 8.40127e-18
4958.00463 9.64923e-18
4959.99847 9.23416e-18
4962.00243 1.01537e-17
4963.99626 9.85388e-18
4966.00022 9.55483e-18
4968.00418 9.58398e-18
4969.99802 9.47701e-18
4972.00198 8.76554e-18
4973.99581 9.65084e-18
4975.99977 9.44091e-18
4978.00373 9.66609e-18
4979.99757 9.85640e-18
4982.00152 9.27972e-18
4983.99536 8.77852e-18
4985.99932 9.29380e-18
4988.00328 1.00495e-17
4989.99711 9.67873e-18
4992.00107 8.83222e-18
4993.99491 9.27863e-18
4995.99887 9.96870e-18
4998.00282 1.01149e-17
4999.99666 9.92906e-18
5002.00062 9.95943e-18
5004.00458 9.06349e-18
5005.99842 9.49879e-18
5008.00237 1.00140e-17
5009.99621 9.65879e-18
5012.00017 9.24936e-18
5014.00413 9.42394e-18
5015.99796 9.57302e-18
5018.00192 9.49188e-18
5019.99576 9.13667e-18
5021.99972 9.30090e-18
5024.00367 9.58088e-18
5025.99751 9.16930e-18
5028.00147 8.93507e-18
5029.99531 9.00217e-18
5031.99926 9.47864e-18
5034.00322 9.40108e-18
5035.99706 9.71503e-18
5038.00102 9.24990e-18
5040.00497 9.55571e-18
5041.99881 9.63437e-18
5044.00277 9.71917e-18
5045.99661 9.13824e-18
5048.00056 9.77644e-18
5050.00452 9.51045e-18
5051.99836 9.08028e-18
5054.00232 9.86822e-18
5055.99615 9.08769e-18
5058.00011 9.66528e-18
5060.00407 9.57216e-18
5061.99791 9.77205e-18
5064.00187 9.95140e-18
5065.99570 9.46644e-18
5067.99966 9.09411e-18
5070.00362 9.97019e-18
5071.99746 1.04180e-17
5074.00141 9.94512e-18
5075.99525 9.87191e-18
5077.99921 1.05505e-17
5080.00317 1.01258e-17
5081.99700 1.06642e-17
5084.00096 1.04844e-17
5086.00492 1.09702e-17
5087.99876 1.02545e-17
5090.00271 1.05886e-17
5091.99655 1.12048e-17
5094.00051 1.05190e-17
5096.00447 1.04667e-17
5097.99831 1.09776e-17
5100.00226 1.10851e-17
5101.99610 1.11970e-17
5104.00006 1.16299e-17
5106.00402 1.07950e-17
5107.99785 1.09875e-17
5110.00181 1.14287e-17
5111.99565 1.11004e-17
5113.99961 1.17555e-17
5116.00356 1.17490e-17
5117.99740 1.13848e-17
5120.00136 1.14953e-17
5121.99520 1.13333e-17
5123.99915 1.16902e-17
5126.00311 1.19290e-17
5127.99695 1.19365e-17
5130.00091 1.21590e-17
5132.00486 1.28073e-17
5133.99870 1.25801e-17
5136.00266 1.26260e-17
5137.99650 1.26288e-17
5140.00046 1.24190e-17
5142.00441 1.21519e-17
5143.99825 1.24241e-17
5146.00221 1.28880e-17
5147.99604 1.21891e-17
5150.00000 1.35127e-17
5152.00396 1.31835e-17
5153.99780 1.22302e-17
5156.00176 1.35238e-17
5157.99559 1.34697e-17
5159.99955 1.35884e-17
5162.00351 1.30275e-17
5163.99735 1.34431e-17
5166.00130 1.26604e-17
5167.99514 1.31184e-17
5169.99910 1.42078e-17
5172.00306 1.29143e-17
5173.99689 1.33420e-17
5176.00085 1.32296e-17
5178.00481 1.38843e-17
5179.99865 1.35357e-17
5182.00261 1.33064e-17
5183.99644 1.40813e-17
5186.00040 1.38885e-17
5188.00436 1.39064e-17
5189.99820 1.38391e-17
5192.00215 1.41185e-17
5193.99599 1.34392e-17
5195.99995 1.40555e-17
5198.00391 1.40705e-17
5199.99774 1.37990e-17
5202.00170 1.43211e-17
5203.99554 1.42833e-17
5205.99950 1.42287e-17
5208.00345 1.40861e-17
5209.99729 1.41595e-17
5212.00125 1.42507e-17
5214.00521 1.43539e-17
5215.99904 1.47126e-17
5218.00300 1.43345e-17
5219.99684 1.39769e-17
5222.00080 1.37749e-17
5224.00475 1.41073e-17
5225.99859 1.37600e-17
5228.00255 1.37120e-17
5229.99639 1.49651e-17
5232.00034 1.40099e-17
5234.00430 1.44935e-17
5235.99814 1.42830e-17
5238.00210 1.41713e-17
5239.99593 1.41071e-17
5241.99989 1.43238e-17
5244.00385 1.44750e-17
