# wavelength flux
3300.0 9.863664139968925e-17
3301.0 9.863660480529466e-17
3302.0 9.863656821091345e-17
3303.0 9.863653161654557e-17
3304.0 9.863649502219102e-17
3305.0 9.863645842784979e-17
3306.0 9.863642183352193e-17
3307.0 9.863638523920741e-17
3308.0 9.863634864490623e-17
3309.0 9.863631205061837e-17
3310.0 9.863627545634384e-17
3311.0 9.86362388620827e-17
3312.0 9.863620226783484e-17
3313.0 9.863616567360034e-17
3314.0 9.86361290793792e-17
3315.0 9.863609248517137e-17
3316.0 9.863605589097689e-17
3317.0 9.863601929679574e-17
3318.0 9.863598270262797e-17
3319.0 9.863594610847349e-17
3320.0 9.863590951433234e-17
3321.0 9.86358729202046e-17
3322.0 9.863583632609013e-17
3323.0 9.863579973198905e-17
3324.0 9.863576313790126e-17
3325.0 9.863572654382682e-17
3326.0 9.863568994976573e-17
3327.0 9.863565335571799e-17
3328.0 9.863561676168356e-17
3329.0 9.863558016766248e-17
3330.0 9.863554357365475e-17
3331.0 9.863550697966036e-17
3332.0 9.86354703856793e-17
3333.0 9.86354337917116e-17
3334.0 9.863539719775719e-17
3335.0 9.863536060381616e-17
3336.0 9.863532400988848e-17
3337.0 9.863528741597412e-17
3338.0 9.863525082207309e-17
3339.0 9.86352142281854e-17
3340.0 9.863517763431104e-17
3341.0 9.863514104045002e-17
3342.0 9.863510444660237e-17
3343.0 9.863506785276802e-17
3344.0 9.863503125894706e-17
3345.0 9.863499466513937e-17
3346.0 9.863495807134507e-17
3347.0 9.86349214775641e-17
3348.0 9.863488488379647e-17
3349.0 9.863484829004216e-17
3350.0 9.863481169630121e-17
3351.0 9.863477510257358e-17
3352.0 9.863473850885928e-17
3353.0 9.863470191515837e-17
3354.0 9.863466532147074e-17
3355.0 9.863462872779649e-17
3356.0 9.863459213413556e-17
3357.0 9.863455554048796e-17
3358.0 9.86345189468537e-17
3359.0 9.863448235323282e-17
3360.0 9.863444575962523e-17
3361.0 9.863440916603099e-17
3362.0 9.863437257245008e-17
3363.0 9.863433597888255e-17
3364.0 9.863429938532832e-17
3365.0 9.863426279178744e-17
3366.0 9.86342261982599e-17
3367.0 9.86341896047457e-17
3368.0 9.863415301124483e-17
3369.0 9.863411641775732e-17
3370.0 9.863407982428314e-17
3371.0 9.863404323082229e-17
3372.0 9.86340066373748e-17
3373.0 9.863397004394061e-17
3374.0 9.863393345051976e-17
3375.0 9.86338968571123e-17
3376.0 9.863386026371812e-17
3377.0 9.863382367033733e-17
3378.0 9.863378707696983e-17
3379.0 9.863375048361568e-17
3380.0 9.863371389027489e-17
3381.0 9.863367729694743e-17
3382.0 9.86336407036333e-17
3383.0 9.863360411033252e-17
3384.0 9.86335675170451e-17
3385.0 9.863353092377098e-17
3386.0 9.86334943305102e-17
3387.0 9.863345773726277e-17
3388.0 9.86334211440287e-17
3389.0 9.863338455080793e-17
3390.0 9.863334795760051e-17
3391.0 9.863331136440643e-17
3392.0 9.863327477122569e-17
3393.0 9.863323817805829e-17
3394.0 9.863320158490426e-17
3395.0 9.863316499176352e-17
3396.0 9.863312839863613e-17
3397.0 9.86330918055221e-17
3398.0 9.863305521242139e-17
3399.0 9.863301861933403e-17
3400.0 9.863298202625999e-17
3401.0 9.86329454331993e-17
3402.0 9.863290884015193e-17
3403.0 9.863287224711795e-17
3404.0 9.863283565409726e-17
3405.0 9.863279906108995e-17
3406.0 9.863276246809593e-17
3407.0 9.863272587511528e-17
3408.0 9.863268928214795e-17
3409.0 9.863265268919397e-17
3410.0 9.863261609625331e-17
3411.0 9.863257950332603e-17
3412.0 9.863254291041206e-17
3413.0 9.863250631751142e-17
3414.0 9.863246972462414e-17
3415.0 9.863243313175018e-17
3416.0 9.863239653888955e-17
3417.0 9.863235994604229e-17
3418.0 9.863232335320835e-17
3419.0 9.863228676038776e-17
3420.0 9.86322501675805e-17
3421.0 9.863221357478658e-17
3422.0 9.8632176982006e-17
3423.0 9.863214038923873e-17
3424.0 9.863210379648485e-17
3425.0 9.863206720374427e-17
3426.0 9.863203061101706e-17
3427.0 9.863199401830315e-17
3428.0 9.863195742560261e-17
3429.0 9.863192083291538e-17
3430.0 9.863188424024151e-17
3431.0 9.863184764758096e-17
3432.0 9.863181105493379e-17
3433.0 9.863177446229991e-17
3434.0 9.863173786967938e-17
3435.0 9.86317012770722e-17
3436.0 9.863166468447835e-17
3437.0 9.863162809189786e-17
3438.0 9.863159149933068e-17
3439.0 9.863155490677685e-17
3440.0 9.863151831423636e-17
3441.0 9.86314817217092e-17
3442.0 9.863144512919537e-17
3443.0 9.863140853669491e-17
3444.0 9.863137194420779e-17
3445.0 9.863133535173397e-17
3446.0 9.863129875927352e-17
3447.0 9.863126216682638e-17
3448.0 9.863122557439259e-17
3449.0 9.863118898197212e-17
3450.0 9.863115238956505e-17
3451.0 9.863111579717126e-17
3452.0 9.863107920479084e-17
3453.0 9.863104261242373e-17
3454.0 9.863100602006996e-17
3455.0 9.863096942772956e-17
3456.0 9.863093283540247e-17
3457.0 9.863089624308874e-17
3458.0 9.863085965078832e-17
3459.0 9.863082305850127e-17
3460.0 9.863078646622756e-17
3461.0 9.863074987396713e-17
3462.0 9.863071328172011e-17
3463.0 9.863067668948639e-17
3464.0 9.863064009726602e-17
3465.0 9.863060350505897e-17
3466.0 9.863056691286527e-17
3467.0 9.863053032068492e-17
3468.0 9.863049372851791e-17
3469.0 9.86304571363642e-17
3470.0 9.863042054422385e-17
3471.0 9.863038395209685e-17
3472.0 9.863034735998318e-17
3473.0 9.863031076788284e-17
3474.0 9.863027417579585e-17
3475.0 9.863023758372221e-17
3476.0 9.86302009916619e-17
3477.0 9.863016439961493e-17
3478.0 9.863012780758128e-17
3479.0 9.863009121556098e-17
3480.0 9.863005462355401e-17
3481.0 9.863001803156037e-17
3482.0 9.862998143958008e-17
3483.0 9.862994484761314e-17
3484.0 9.862990825565955e-17
3485.0 9.862987166371925e-17
3486.0 9.862983507179231e-17
3487.0 9.862979847987873e-17
3488.0 9.862976188797847e-17
3489.0 9.862972529609155e-17
3490.0 9.862968870421797e-17
3491.0 9.862965211235771e-17
3492.0 9.862961552051081e-17
3493.0 9.862957892867723e-17
3494.0 9.862954233685699e-17
3495.0 9.86295057450501e-17
3496.0 9.862946915325656e-17
3497.0 9.862943256147632e-17
3498.0 9.862939596970946e-17
3499.0 9.862935937795592e-17
3500.0 9.862932278621571e-17
3500.76 -6.6349e-18
3501.53 7.1327e-19
3502.29 1.0206e-17
3503.06 -2.6635e-18
3503.82 1.0141e-17
3504.59 -9.95e-18
3505.35 -8.7206e-18
3506.11 -8.9295e-18
3506.88 -2.6871e-17
3507.64 -1.3452e-17
3508.41 1.5416e-17
3509.17 -2.4611e-17
3509.94 -1.0634e-17
3510.7 -5.0367e-18
3511.47 -2.3478e-17
3512.23 1.0593e-17
3512.99 2.7927e-18
3513.76 -5.616e-18
3514.52 1.9855e-19
3515.29 -2.3155e-18
3516.05 -2.5951e-17
3516.82 -1.0265e-18
3517.58 3.0096e-17
3518.34 -5.6053e-18
3519.11 -2.4119e-17
3519.87 1.0141e-18
3520.64 -2.4034e-18
3521.4 -1.4131e-17
3522.17 -7.3373e-18
3522.93 7.1743e-18
3523.7 -1.1825e-17
3524.46 -2.0456e-17
3525.22 -2.0232e-17
3525.99 2.4521e-17
3526.75 -3.6858e-17
3527.52 -3.0401e-17
3528.28 -2.968e-17
3529.05 4.7416e-18
3529.81 -1.0232e-17
3530.57 -2.6025e-17
3531.34 -3.2269e-18
3532.1 1.1341e-17
3532.87 7.7461e-18
3533.63 4.6349e-19
3534.4 -6.7155e-19
3535.16 -2.3265e-17
3535.92 -1.5751e-17
3536.69 -8.7042e-18
3537.45 3.8385e-18
3538.22 -3.732e-18
3538.98 -2.1971e-17
3539.75 1.0187e-17
3540.51 4.6297e-19
3541.28 -2.9992e-17
3542.04 -1.1189e-17
3542.8 -2.5972e-17
3543.57 -3.8701e-17
3544.33 -3.7907e-18
3545.1 -2.5949e-17
3545.86 -2.8495e-17
3546.63 -4.4324e-18
3547.39 -2.4398e-17
3548.15 -1.3021e-17
3548.92 -1.5949e-17
3549.68 -1.5575e-17
3550.45 -5.1336e-17
3551.21 -4.3186e-18
3551.98 -1.8546e-17
3552.74 -1.3072e-17
3553.51 -2.7338e-17
3554.27 -2.1603e-17
3555.03 2.224e-18
3555.8 -8.1162e-18
3556.56 -2.6608e-17
3557.33 -2.5426e-17
3558.09 -4.1934e-18
3558.86 -2.7266e-17
3559.62 -3.3338e-17
3560.38 -2.0836e-17
3561.15 -8.4342e-18
3561.91 3.8584e-18
3562.68 -2.4479e-17
3563.44 -1.9698e-17
3564.21 -3.1008e-18
3564.97 1.0206e-17
3565.73 2.607e-17
3566.5 -3.0279e-18
3567.26 -3.4312e-18
3568.03 5.9592e-18
3568.79 -6.4265e-18
3569.56 -1.7202e-18
3570.32 2.3265e-18
3571.09 1.2229e-17
3571.85 2.0175e-18
3572.61 -1.0005e-18
3573.38 4.3267e-18
3574.14 -2.4754e-18
3574.91 -2.0122e-17
3575.67 1.2125e-18
3576.44 -5.0831e-18
3577.2 1.5473e-17
3577.96 2.1671e-17
3578.73 1.8315e-17
3579.49 -1.2611e-18
3580.26 -1.4418e-17
3581.02 2.0208e-17
3581.79 -8.6803e-18
3582.55 2.4773e-19
3583.32 7.7869e-18
3584.08 1.2444e-17
3584.84 -4.3934e-18
3585.61 -1.8575e-17
3586.37 -2.4811e-18
3587.14 -1.8089e-18
3587.9 8.0674e-18
3588.67 -2.058e-18
3589.43 8.7884e-21
3590.19 -3.7425e-18
3590.96 -2.6398e-17
3591.72 3.3267e-18
3592.49 -2.8807e-18
3593.25 -8.463e-18
3594.02 -1.3945e-17
3594.78 1.1785e-18
3595.54 -7.2841e-18
3596.31 -5.6471e-19
3597.07 -2.189e-17
3597.84 9.2429e-18
3598.6 4.7023e-18
3599.37 -2.7753e-17
3600.13 -2.559e-18
3600.9 3.3438e-18
3601.66 -2.2474e-18
3602.42 5.0502e-18
3603.19 1.421e-18
3603.95 1.8697e-18
3604.72 5.576e-18
3605.48 -5.8177e-18
3606.25 -1.0608e-17
3607.01 1.3945e-18
3607.77 1.0963e-17
3608.54 2.0237e-17
3609.3 2.3806e-18
3610.07 2.212e-17
3610.83 1.0184e-17
3611.6 -1.4297e-17
3612.36 9.8064e-19
3613.13 1.8084e-17
3613.89 1.1239e-17
3614.65 1.2015e-17
3615.42 8.3675e-18
3616.18 -4.6087e-18
3616.95 -1.3122e-17
3617.71 1.2803e-17
3618.48 1.3354e-18
3619.24 -5.5703e-18
3620.0 1.6942e-18
3620.77 3.5353e-18
3621.53 -1.6623e-17
3622.3 -2.9246e-18
3623.06 7.7615e-18
3623.83 -1.199e-17
3624.59 3.9051e-18
3625.35 -1.65e-18
3626.12 -1.7656e-17
3626.88 3.1419e-18
3627.65 2.3302e-17
3628.41 -7.5866e-18
3629.18 -4.1405e-18
3629.94 2.0482e-17
3630.71 -2.3377e-18
3631.47 3.6945e-19
3632.23 -5.8193e-18
3633.0 1.4303e-17
3633.76 2.7123e-17
3634.53 -1.4933e-18
3635.29 1.7497e-17
3636.06 3.7104e-18
3636.82 8.7539e-18
3637.58 -4.9563e-18
3638.35 8.9693e-18
3639.11 6.4017e-18
3639.88 3.5299e-18
3640.64 -8.3295e-19
3641.41 8.3171e-18
3642.17 1.2579e-17
3642.94 1.7525e-18
3643.7 1.5329e-17
3644.46 1.6743e-17
3645.23 9.0575e-18
3645.99 1.435e-17
3646.76 3.2776e-17
3647.52 1.2119e-17
3648.29 8.5706e-18
3649.05 1.8689e-17
3649.81 1.5702e-18
3650.58 -1.7528e-17
3651.34 5.839e-18
3652.11 5.6235e-18
3652.87 1.0453e-17
3653.64 1.5673e-17
3654.4 6.3946e-18
3655.16 1.0384e-17
3655.93 4.3817e-18
3656.69 1.3604e-17
3657.46 -1.0654e-18
3658.22 2.2557e-17
3658.99 1.8257e-17
3659.75 1.072e-18
3660.52 1.3649e-17
3661.28 1.3608e-17
3662.04 1.4656e-17
3662.81 1.4714e-17
3663.57 6.1258e-18
3664.34 1.0419e-17
3665.1 1.0169e-17
3665.87 9.8517e-18
3666.63 1.0263e-17
3667.39 1.5363e-17
3668.16 1.5322e-17
3668.92 1.5072e-17
3669.69 1.5516e-17
3670.45 7.3176e-18
3671.22 -1.2676e-18
3671.98 4.295e-18
3672.75 6.2264e-18
3673.51 2.0646e-17
3674.27 -4.5234e-18
3675.04 1.3196e-17
3675.8 7.8666e-18
3676.57 2.0711e-17
3677.33 1.3614e-17
3678.1 -4.9797e-19
3678.86 6.3858e-18
3679.62 -7.1633e-18
3680.39 2.2123e-17
3681.15 2.8345e-17
3681.92 3.0838e-17
3682.68 1.0387e-17
3683.45 1.7952e-17
3684.21 2.1068e-17
3684.97 9.8648e-18
3685.74 1.1677e-17
3686.5 1.0025e-17
3687.27 1.5103e-17
3688.03 2.2549e-17
3688.8 1.7663e-17
3689.56 1.1153e-17
3690.33 4.27e-18
3691.09 9.925e-18
3691.85 1.9855e-17
3692.62 1.8018e-17
3693.38 1.8265e-17
3694.15 8.4171e-18
3694.91 1.5938e-17
3695.68 1.6276e-17
3696.44 1.4274e-17
3697.2 2.174e-17
3697.97 1.9464e-17
3698.73 1.269e-17
3699.5 1.4898e-17
3700.26 1.3797e-17
3701.03 1.8777e-17
3701.79 6.7194e-18
3702.56 5.8235e-18
3703.32 9.4798e-18
3704.08 1.8297e-17
3704.85 1.6968e-17
3705.61 1.2965e-17
3706.38 2.0503e-17
3707.14 7.4532e-18
3707.91 2.2907e-17
3708.67 6.1727e-18
3709.43 1.7863e-17
3710.2 1.2509e-17
3710.96 7.3506e-18
3711.73 1.2358e-17
3712.49 1.7703e-17
3713.26 2.0354e-17
3714.02 1.6949e-17
3714.78 2.2874e-17
3715.55 2.7712e-17
3716.31 2.5365e-17
3717.08 2.7315e-17
3717.84 1.8091e-17
3718.61 1.8364e-17
3719.37 9.8562e-18
3720.14 2.0169e-17
3720.9 1.9723e-17
3721.66 1.0775e-17
3722.43 2.2275e-17
3723.19 2.0187e-17
3723.96 1.7502e-17
3724.72 1.7819e-17
3725.49 1.8332e-17
3726.25 2.2849e-17
3727.01 2.333e-17
3727.78 2.711e-17
3728.54 2.8073e-17
3729.31 2.6822e-17
3730.07 1.7147e-17
3730.84 2.8631e-17
3731.6 2.1619e-17
3732.37 2.1102e-17
3733.13 1.7966e-17
3733.89 4.5606e-17
3734.66 4.1824e-17
3735.42 3.246e-17
3736.19 2.162e-17
3736.95 1.6865e-17
3737.72 3.1371e-17
3738.48 2.9276e-17
3739.24 3.0492e-17
3740.01 2.5053e-17
3740.77 2.2957e-17
3741.54 -2.5394e-17
3742.3 -8.1434e-17
3743.07 -5.6538e-17
3743.83 -3.4893e-17
3744.59 -9.7509e-17
3745.36 -2.8304e-17
3746.12 3.443e-17
3746.89 4.1904e-17
3747.65 4.4938e-17
3748.42 2.9192e-17
3749.18 2.5203e-17
3749.95 2.3621e-17
3750.71 3.3842e-17
3751.47 3.0506e-17
3752.24 2.3551e-17
3753.0 2.2713e-17
3753.77 3.7032e-17
3754.53 3.6464e-17
3755.3 3.7836e-17
3756.06 5.3287e-17
3756.82 4.785e-17
3757.59 4.2568e-17
3758.35 4.8567e-17
3759.12 4.3532e-17
3759.88 3.3247e-17
3760.65 4.1689e-17
3761.41 4.286e-17
3762.18 3.7638e-17
3762.94 3.2082e-17
3763.7 2.7356e-17
3764.47 3.4556e-17
3765.23 2.8915e-17
3766.0 2.1624e-17
3766.76 3.0499e-17
3767.53 3.2246e-17
3768.29 4.057e-17
3769.05 3.656e-17
3769.82 2.3673e-17
3770.58 3.3663e-17
3771.35 3.5637e-17
3772.11 4.1644e-17
3772.88 3.9211e-17
3773.64 4.4897e-17
3774.4 4.7209e-17
3775.17 4.5711e-17
3775.93 3.9226e-17
3776.7 3.977e-17
3777.46 4.5106e-17
3778.23 3.9352e-17
3778.99 3.643e-17
3779.76 4.0326e-17
3780.52 4.5393e-17
3781.28 4.1258e-17
3782.05 4.1417e-17
3782.81 3.5719e-17
3783.58 3.0326e-17
3784.34 4.4054e-17
3785.11 4.8146e-17
3785.87 2.913e-17
3786.63 3.5811e-17
3787.4 3.3706e-17
3788.16 2.901e-17
3788.93 3.129e-17
3789.69 3.1965e-17
3790.46 4.3729e-17
3791.22 3.2849e-17
3791.99 4.4542e-17
3792.75 4.4051e-17
3793.51 3.9181e-17
3794.28 4.2999e-17
3795.04 4.5863e-17
3795.81 4.0624e-17
3796.57 5.0668e-17
3797.34 4.8271e-17
3798.1 4.7259e-17
3798.86 4.308e-17
3799.63 4.3085e-17
3800.39 3.4561e-17
3801.16 5.6138e-17
3801.92 5.1708e-17
3802.69 4.4687e-17
3803.45 4.655e-17
3804.22 3.7809e-17
3804.98 3.5099e-17
3805.74 3.3784e-17
3806.51 4.6608e-17
3807.27 4.2971e-17
3808.04 3.6297e-17
3808.8 2.6886e-17
3809.57 2.9484e-17
3810.33 3.0096e-17
3811.09 2.841e-17
3811.86 2.6479e-17
3812.62 2.5109e-17
3813.39 2.5486e-17
3814.15 2.644e-17
3814.92 2.8557e-17
3815.68 3.5096e-17
3816.44 2.931e-17
3817.21 3.3164e-17
3817.97 4.1225e-17
3818.74 4.2973e-17
3819.5 3.8858e-17
3820.27 3.8512e-17
3821.03 4.515e-17
3821.8 4.5706e-17
3822.56 3.1567e-17
3823.32 4.958e-17
3824.09 4.8915e-17
3824.85 5.3268e-17
3825.62 5.1906e-17
3826.38 4.9278e-17
3827.15 5.2316e-17
3827.91 4.7819e-17
3828.67 4.6999e-17
3829.44 4.9097e-17
3830.2 5.1945e-17
3830.97 4.9332e-17
3831.73 5.0075e-17
3832.5 4.5662e-17
3833.26 4.6931e-17
3834.03 4.4865e-17
3834.79 5.1905e-17
3835.55 3.5318e-17
3836.32 3.6167e-17
3837.08 5.0938e-17
3837.85 4.1925e-17
3838.61 4.3925e-17
3839.38 3.8931e-17
3840.14 3.728e-17
3840.9 4.7578e-17
3841.67 3.2424e-17
3842.43 3.8885e-17
3843.2 3.0539e-17
3843.96 3.1087e-17
3844.73 3.2204e-17
3845.49 3.3312e-17
3846.25 3.4229e-17
3847.02 2.8084e-17
3847.78 3.3651e-17
3848.55 3.8277e-17
3849.31 2.8213e-17
3850.08 1.5762e-17
3850.84 1.4476e-17
3851.61 2.092e-17
3852.37 2.5429e-17
3853.13 2.2739e-17
3853.9 3.5555e-17
3854.66 3.3412e-17
3855.43 3.295e-17
3856.19 3.4985e-17
3856.96 4.0258e-17
3857.72 3.9144e-17
3858.48 4.4603e-17
3859.25 3.1721e-17
3860.01 3.2181e-17
3860.78 3.878e-17
3861.54 4.5079e-17
3862.31 4.5634e-17
3863.07 4.3049e-17
3863.84 4.2703e-17
3864.6 3.557e-17
3865.36 3.9006e-17
3866.13 3.7255e-17
3866.89 3.9611e-17
3867.66 3.2784e-17
3868.42 3.8801e-17
3869.19 3.8388e-17
3869.95 3.619e-17
3870.71 4.3349e-17
3871.48 3.7487e-17
3872.24 3.4495e-17
3873.01 3.0791e-17
3873.77 3.7512e-17
3874.54 3.4931e-17
3875.3 3.5335e-17
3876.06 4.6124e-17
3876.83 4.1923e-17
3877.59 3.7917e-17
3878.36 4.0798e-17
3879.12 3.5701e-17
3879.89 4.0377e-17
3880.65 4.5586e-17
3881.42 3.6623e-17
3882.18 4.4378e-17
3882.94 4.1246e-17
3883.71 3.9887e-17
3884.47 4.1358e-17
3885.24 3.3853e-17
3886.0 3.9128e-17
3886.77 3.5658e-17
3887.53 4.3921e-17
3888.29 4.2116e-17
3889.06 3.789e-17
3889.82 3.8889e-17
3890.59 4.964e-17
3891.35 4.4084e-17
3892.12 4.5871e-17
3892.88 3.8108e-17
3893.65 3.5508e-17
3894.41 4.2167e-17
3895.17 3.5672e-17
3895.94 3.4612e-17
3896.7 3.6568e-17
3897.47 3.8867e-17
3898.23 3.8088e-17
3899.0 3.6775e-17
3899.76 3.0996e-17
3900.52 2.9359e-17
3901.29 2.3889e-17
3902.05 2.7783e-17
3902.82 3.0392e-17
3903.58 2.443e-17
3904.35 3.6446e-17
3905.11 1.7111e-17
3905.87 1.489e-17
3906.64 2.127e-17
3907.4 2.2441e-17
3908.17 2.9144e-17
3908.93 3.3594e-17
3909.7 3.1772e-17
3910.46 2.7378e-17
3911.23 3.243e-17
3911.99 2.5818e-17
3912.75 3.7856e-17
3913.52 4.4484e-17
3914.28 4.3244e-17
3915.05 2.6877e-17
3915.81 3.5619e-17
3916.58 4.0252e-17
3917.34 3.3445e-17
3918.1 4.2407e-17
3918.87 3.9579e-17
3919.63 4.4287e-17
3920.4 4.616e-17
3921.16 4.6321e-17
3921.93 3.2394e-17
3922.69 4.383e-17
3923.46 4.5578e-17
3924.22 3.4162e-17
3924.98 4.8625e-17
3925.75 5.3057e-17
3926.51 4.8108e-17
3927.28 4.7128e-17
3928.04 4.3345e-17
3928.81 5.3217e-17
3929.57 5.4479e-17
3930.33 7.7408e-17
3931.1 3.166e-16
3931.86 2.2457e-15
3932.63 6.4647e-15
3933.39 7.4385e-15
3934.16 2.9652e-15
3934.92 3.6958e-16
3935.68 9.1537e-17
3936.45 5.3147e-17
3937.21 5.2001e-17
3937.98 5.2241e-17
3938.74 4.9336e-17
3939.51 4.91e-17
3940.27 4.9202e-17
3941.04 4.4917e-17
3941.8 5.02e-17
3942.56 5.7265e-17
3943.33 5.2256e-17
3944.09 6.1704e-17
3944.86 5.5671e-17
3945.62 5.2616e-17
3946.39 4.9522e-17
3947.15 5.2236e-17
3947.91 4.9427e-17
3948.68 3.8405e-17
3949.44 4.2388e-17
3950.21 4.8517e-17
3950.97 4.9211e-17
3951.74 5.8388e-17
3952.5 5.9685e-17
3953.27 5.4383e-17
3954.03 5.775e-17
3954.79 5.2102e-17
3955.56 6.5285e-17
3956.32 6.414e-17
3957.09 5.8907e-17
3957.85 6.5579e-17
3958.62 6.331e-17
3959.38 7.0054e-17
3960.14 6.8542e-17
3960.91 7.6932e-17
3961.67 7.6442e-17
3962.44 6.7783e-17
3963.2 6.6723e-17
3963.97 6.8386e-17
3964.73 7.0039e-17
3965.49 7.6557e-17
3966.26 7.1019e-17
3967.02 6.6777e-17
3967.79 6.8006e-17
3968.55 6.8136e-17
3969.32 7.3411e-17
3970.08 7.3805e-17
3970.85 7.1254e-17
3971.61 7.1966e-17
3972.37 7.5237e-17
3973.14 5.5348e-17
3973.9 6.4574e-17
3974.67 6.9036e-17
3975.43 7.3672e-17
3976.2 7.2372e-17
3976.96 6.5927e-17
3977.72 6.1578e-17
3978.49 6.1463e-17
3979.25 6.2072e-17
3980.02 5.8955e-17
3980.78 6.0279e-17
3981.55 5.5764e-17
3982.31 5.8192e-17
3983.08 5.1963e-17
3983.84 4.7554e-17
3984.6 4.6605e-17
3985.37 4.0693e-17
3986.13 3.9137e-17
3986.9 4.4207e-17
3987.66 3.7226e-17
3988.43 4.4486e-17
3989.19 4.9e-17
3989.95 5.8903e-17
3990.72 6.4538e-17
3991.48 5.6475e-17
3992.25 5.7861e-17
3993.01 5.7186e-17
3993.78 6.5211e-17
3994.54 6.563e-17
3995.3 6.3718e-17
3996.07 6.6025e-17
3996.83 6.656e-17
3997.6 6.979e-17
3998.36 6.007e-17
3999.13 6.2066e-17
3999.89 5.5766e-17
4000.66 5.82e-17
4001.42 7.1255e-17
4002.18 6.0776e-17
4002.95 5.3495e-17
4003.71 6.4909e-17
4004.48 7.3657e-17
4005.24 7.0072e-17
4006.01 7.1366e-17
4006.77 6.4505e-17
4007.53 6.5158e-17
4008.3 6.5499e-17
4009.06 6.6732e-17
4009.83 7.0141e-17
4010.59 6.7523e-17
4011.36 7.2059e-17
4012.12 7.2267e-17
4012.89 6.5825e-17
4013.65 6.5032e-17
4014.41 7.0624e-17
4015.18 6.395e-17
4015.94 6.2471e-17
4016.71 7.1068e-17
4017.47 6.3815e-17
4018.24 6.7824e-17
4019.0 7.3437e-17
4019.76 6.3715e-17
4020.53 7.6746e-17
4021.29 6.1915e-17
4022.06 6.3273e-17
4022.82 6.2574e-17
4023.59 5.7173e-17
4024.35 6.0869e-17
4025.11 6.6071e-17
4025.88 6.4498e-17
4026.64 5.6396e-17
4027.41 6.1629e-17
4028.17 6.0647e-17
4028.94 6.1466e-17
4029.7 5.5396e-17
4030.47 6.8431e-17
4031.23 5.7492e-17
4031.99 5.9664e-17
4032.76 6.4212e-17
4033.52 6.1747e-17
4034.29 6.356e-17
4035.05 5.5908e-17
4035.82 6.3866e-17
4036.58 5.2635e-17
4037.34 5.6242e-17
4038.11 5.467e-17
4038.87 6.0281e-17
4039.64 5.5368e-17
4040.4 5.6736e-17
4041.17 5.6783e-17
4041.93 5.4072e-17
4042.7 5.5874e-17
4043.46 5.7193e-17
4044.22 5.5349e-17
4044.99 6.0929e-17
4045.75 6.2485e-17
4046.52 5.4774e-17
4047.28 5.9869e-17
4048.05 5.7543e-17
4048.81 5.4043e-17
4049.57 5.613e-17
4050.34 5.304e-17
4051.1 6.642e-17
4051.87 6.6141e-17
4052.63 6.1041e-17
4053.4 6.7071e-17
4054.16 6.5038e-17
4054.92 7.2728e-17
4055.69 7.2875e-17
4056.45 6.7394e-17
4057.22 7.0906e-17
4057.98 7.4268e-17
4058.75 7.3273e-17
4059.51 7.1777e-17
4060.28 6.8861e-17
4061.04 7.2808e-17
4061.8 7.4549e-17
4062.57 8.3386e-17
4063.33 8.4414e-17
4064.1 8.1784e-17
4064.86 8.8228e-17
4065.63 8.2869e-17
4066.39 8.0097e-17
4067.15 8.4515e-17
4067.92 1.0284e-16
4068.68 8.7959e-17
4069.45 9.1858e-17
4070.21 1.0121e-16
4070.98 1.0735e-16
4071.74 1.1035e-16
