# wavelength flux
3893.99799 -1.46160e-18
3896.00239 -1.05462e-18
3897.99677 1.73809e-17
3900.00117 6.76441e-18
3901.99555 1.73207e-17
3903.99995 7.33887e-18
3906.00435 -6.89282e-19
3907.99872 1.04564e-17
3910.00312 1.22475e-17
3911.99750 1.84867e-17
3914.00190 1.24214e-17
3915.99628 1.17684e-17
3918.00068 5.52711e-18
3920.00508 5.47030e-19
3921.99946 3.33647e-18
3924.00386 2.83581e-18
3925.99824 8.47808e-18
3928.00264 1.34221e-17
3929.99701 2.24075e-17
3932.00141 1.14202e-17
3933.99579 7.84749e-18
3936.00019 9.93980e-18
3938.00459 5.22919e-18
3939.99897 5.84919e-19
3942.00337 -2.65822e-18
3943.99775 4.67835e-20
3946.00215 2.50008e-18
3947.99653 1.65512e-18
3950.00093 1.27667e-17
3951.99530 1.86710e-17
3953.99970 2.29843e-17
3956.00410 2.32255e-17
3957.99848 2.24901e-17
3960.00288 1.41733e-17
3961.99726 8.42413e-18
3964.00166 1.66804e-17
3965.99604 1.67752e-17
3968.00044 8.59370e-18
3970.00484 4.44817e-18
3971.99922 7.40798e-18
3974.00362 1.25687e-17
3975.99799 1.15584e-17
3978.00239 1.31467e-17
3979.99677 3.84965e-18
3982.00117 8.00931e-18
3983.99555 6.50168e-18
3985.99995 7.75358e-18
3988.00435 6.24294e-18
3989.99873 6.66073e-18
3992.00313 1.16495e-17
3993.99751 4.63381e-18
3996.00191 5.00985e-18
3997.99628 1.22706e-17
4000.00068 4.66783e-18
4001.99506 -2.50737e-19
4003.99946 -2.25548e-19
4006.00386 8.87959e-18
4007.99824 1.08160e-17
4010.00264 8.28826e-18
4011.99702 1.19287e-18
4014.00142 1.65942e-18
4015.99580 1.22013e-17
4018.00020 8.32692e-18
4020.00460 9.07520e-18
4021.99897 1.02641e-17
4024.00337 9.36550e-18
4025.99775 1.18005e-17
4028.00215 1.21366e-17
4029.99653 5.40560e-18
4032.00093 1.25882e-17
4033.99531 9.74409e-18
4035.99971 1.99013e-17
4038.00411 1.61924e-17
4039.99849 5.67567e-18
4042.00289 5.37451e-18
4043.99726 8.34338e-18
4046.00166 9.94880e-18
4047.99604 5.59070e-18
4050.00044 4.88856e-18
4052.00484 1.26075e-17
4053.99922 1.49356e-17
4056.00362 1.01627e-17
4057.99800 9.03849e-18
4060.00240 5.55934e-18
4061.99678 4.33067e-18
4064.00118 -5.98031e-19
4065.99555 6.43254e-18
4067.99995 1.60574e-17
4070.00435 1.97766e-17
4071.99873 1.13504e-17
4074.00313 1.85259e-17
4075.99751 9.46397e-18
4078.00191 1.06871e-18
4079.99629 -1.30803e-18
4082.00069 4.76223e-18
4083.99507 -8.31830e-19
4085.99947 5.55731e-18
4088.00387 7.91680e-18
4089.99824 -4.74967e-19
4092.00264 1.07601e-17
4093.99702 6.31000e-18
4096.00142 3.55967e-18
4097.99580 7.94366e-18
4100.00020 1.54506e-17
4102.00460 9.73781e-18
4103.99898 1.07553e-17
4106.00338 1.35939e-17
4107.99776 5.35306e-18
4110.00216 1.95960e-18
4111.99653 7.59119e-18
4114.00093 5.40938e-18
4115.99531 7.77483e-18
4117.99971 1.23576e-17
4120.00411 3.84378e-18
4121.99849 1.72859e-18
4124.00289 -2.20388e-19
4125.99727 7.64794e-18
4128.00167 8.28961e-18
4129.99605 1.00660e-17
4132.00045 -1.29141e-19
4134.00485 1.28512e-18
4135.99922 1.00320e-17
4138.00362 1.21438e-17
4139.99800 6.70542e-18
4142.00240 1.19952e-17
4143.99678 1.21865e-17
4146.00118 1.05899e-17
4147.99556 8.01474e-18
4149.99996 5.15171e-18
4152.00436 2.38022e-18
4153.99874 7.49956e-18
4156.00314 7.26969e-18
4157.99751 7.93661e-18
4160.00191 5.39990e-18
4161.99629 9.72618e-18
4164.00069 1.44516e-17
4165.99507 5.95299e-18
4167.99947 1.06498e-17
4170.00387 9.95346e-18
4171.99825 6.16597e-18
4174.00265 4.29053e-18
4175.99703 3.86561e-18
4178.00143 4.07475e-18
4179.99580 1.41774e-17
4182.00020 1.50210e-17
4184.00460 5.49976e-18
4185.99898 3.56641e-18
4188.00338 3.61181e-18
4189.99776 9.13287e-18
4192.00216 1.11971e-17
4193.99654 8.21234e-18
4196.00094 6.44154e-18
4197.99532 1.21704e-17
4199.99972 3.55839e-18
4202.00412 4.89851e-18
4203.99849 8.36213e-18
4206.00289 5.18048e-18
4207.99727 4.42585e-18
4210.00167 9.95502e-18
4211.99605 1.01586e-17
4214.00045 7.40568e-18
4216.00485 2.22932e-18
4217.99923 4.54166e-18
4220.00363 3.22960e-18
4221.99801 3.58992e-18
4224.00241 5.22871e-18
4225.99678 8.58084e-18
4228.00118 7.82812e-18
4229.99556 3.54772e-18
4231.99996 6.60808e-18
4234.00436 1.18931e-17
4235.99874 1.42272e-17
4238.00314 9.11972e-18
4239.99752 6.92601e-18
4242.00192 4.62054e-18
4243.99630 1.36936e-17
4246.00070 1.79096e-17
4247.99507 1.17135e-17
4249.99947 8.94527e-18
4252.00387 5.02678e-18
4253.99825 7.02898e-18
4256.00265 3.47739e-18
4257.99703 6.19895e-18
4260.00143 2.32595e-18
4261.99581 2.88094e-18
4264.00021 7.41320e-18
4266.00461 8.21743e-18
4267.99899 6.41321e-18
4270.00339 1.37829e-17
4271.99776 7.88833e-18
4274.00216 4.78996e-18
4275.99654 2.45324e-18
4278.00094 8.77825e-18
4279.99532 9.08171e-18
4281.99972 6.68704e-18
4284.00412 7.70430e-18
4285.99850 1.23872e-17
4288.00290 1.20901e-17
4289.99728 9.51254e-18
4292.00168 1.28803e-17
4293.99605 6.49595e-18
4296.00045 6.14045e-18
4297.99483 7.90721e-18
4299.99923 5.29872e-18
4302.00363 9.40726e-18
4303.99801 7.44202e-18
4306.00241 6.15187e-19
4307.99679 5.15140e-18
4310.00119 9.10870e-18
4311.99557 8.63130e-18
4313.99997 1.44773e-17
4316.00437 1.92326e-17
4317.99874 1.05533e-17
4320.00314 1.06093e-17
4321.99752 1.03167e-17
4324.00192 3.54533e-18
4325.99630 6.33289e-18
4328.00070 7.22187e-18
4330.00510 1.91278e-18
4331.99948 7.79073e-18
4334.00388 1.07308e-17
4335.99826 9.30385e-18
4338.00266 9.27082e-18
4339.99703 9.57098e-18
4342.00143 6.10741e-18
4343.99581 7.94873e-18
4346.00021 1.12220e-17
4348.00461 7.36204e-18
4349.99899 1.04219e-17
4352.00339 1.13417e-17
4353.99777 1.14160e-17
4356.00217 1.09709e-17
4357.99655 1.50849e-17
4360.00095 1.71046e-17
4361.99532 1.48104e-17
4363.99972 1.02955e-17
4366.00412 9.39956e-18
4367.99850 1.23135e-17
4370.00290 1.24633e-17
4371.99728 1.42325e-17
4374.00168 1.09723e-17
4375.99606 7.59111e-18
4378.00046 9.76419e-18
4380.00486 1.36601e-17
4381.99924 5.90261e-18
4384.00364 5.78621e-18
4385.99801 1.06628e-17
4388.00241 1.28088e-17
4389.99679 4.94323e-18
4392.00119 1.05964e-17
4393.99557 1.33457e-17
4395.99997 1.37936e-17
4398.00437 8.77146e-18
4399.99875 8.59717e-18
4402.00315 8.86811e-18
4403.99753 4.53455e-18
4406.00193 4.71925e-18
4407.99630 7.02162e-18
4410.00070 1.45348e-17
4411.99508 1.47164e-17
4413.99948 9.86563e-18
4416.00388 9.66686e-18
4417.99826 8.55407e-18
4420.00266 8.91158e-18
4421.99704 8.45591e-18
4424.00144 1.23327e-17
4425.99582 1.12143e-17
4428.00022 8.33253e-18
4430.00462 9.08295e-18
4431.99899 9.37511e-18
4434.00339 1.03986e-17
4435.99777 1.26605e-17
4438.00217 1.20961e-17
4439.99655 1.43704e-17
4442.00095 9.05850e-18
4443.99533 7.75584e-18
4445.99973 8.69021e-18
4448.00413 1.08530e-17
4449.99851 1.22059e-17
4452.00291 9.28633e-18
4453.99728 1.03928e-17
4456.00168 1.10745e-17
4457.99606 9.50479e-18
4460.00046 9.50590e-18
4462.00486 1.20611e-17
4463.99924 1.45738e-17
4466.00364 1.34389e-17
4467.99802 8.04782e-18
4470.00242 1.06150e-17
4471.99680 1.24624e-17
4474.00120 1.14010e-17
4475.99557 1.40587e-17
4477.99997 1.23596e-17
4480.00437 1.12138e-17
4481.99875 1.60622e-17
4484.00315 1.53126e-17
4485.99753 1.17509e-17
4488.00193 1.05899e-17
4489.99631 1.33280e-17
4492.00071 1.58196e-17
4493.99509 1.57267e-17
4495.99949 1.27382e-17
4498.00389 9.36333e-18
4499.99826 1.05196e-17
4502.00266 6.22242e-18
4503.99704 7.80764e-18
4506.00144 1.06455e-17
4507.99582 1.28763e-17
4510.00022 1.25274e-17
4512.00462 1.46511e-17
4513.99900 1.70100e-17
4516.00340 1.57541e-17
4517.99778 1.44817e-17
4520.00218 1.21251e-17
4521.99655 1.26201e-17
4524.00095 1.38572e-17
4525.99533 1.37000e-17
4527.99973 1.51192e-17
4530.00413 1.40287e-17
4531.99851 1.68897e-17
4534.00291 1.93532e-17
4535.99729 1.78481e-17
4538.00169 2.16353e-17
4539.99607 1.79169e-17
4542.00047 1.76547e-17
4543.99484 1.71168e-17
4545.99924 1.94752e-17
4548.00364 1.61072e-17
4549.99802 1.48011e-17
4552.00242 1.42440e-17
4553.99680 1.72893e-17
4556.00120 1.48948e-17
4557.99558 1.44707e-17
4559.99998 1.24979e-17
4562.00438 1.12457e-17
4563.99876 1.38019e-17
4566.00316 1.47881e-17
4567.99753 1.71919e-17
4570.00193 1.70182e-17
4571.99631 1.68279e-17
4574.00071 1.67664e-17
4576.00511 1.70221e-17
4577.99949 1.55372e-17
4580.00389 1.61851e-17
4581.99827 1.95070e-17
4584.00267 1.72549e-17
4585.99705 1.84590e-17
4588.00145 1.97049e-17
4589.99582 1.98433e-17
4592.00022 1.52455e-17
4594.00462 1.46188e-17
4595.99900 1.74869e-17
4598.00340 1.60700e-17
4599.99778 1.77914e-17
4602.00218 1.75630e-17
4603.99656 1.68897e-17
4606.00096 1.66667e-17
4607.99534 1.41110e-17
4609.99974 1.34034e-17
4612.00414 1.63679e-17
4613.99851 1.80269e-17
4616.00291 1.60186e-17
4617.99729 1.35757e-17
4620.00169 1.59667e-17
4621.99607 1.54531e-17
4624.00047 1.36252e-17
4626.00487 1.47621e-17
4627.99925 1.32389e-17
4630.00365 1.36028e-17
4631.99803 1.48823e-17
4634.00243 1.27052e-17
4635.99680 1.23065e-17
4638.00120 1.23365e-17
4639.99558 1.32890e-17
4641.99998 1.45957e-17
4644.00438 1.38051e-17
4645.99876 1.21534e-17
4648.00316 1.42954e-17
4649.99754 1.56340e-17
4652.00194 1.51218e-17
4653.99632 1.58978e-17
4656.00072 1.69890e-17
4657.99509 1.56065e-17
4659.99949 1.47775e-17
4662.00389 1.13399e-17
4663.99827 1.05625e-17
4666.00267 1.12489e-17
4667.99705 1.30472e-17
4670.00145 1.31290e-17
4671.99583 1.15924e-17
4674.00023 1.27285e-17
4676.00463 1.27386e-17
4677.99901 1.04672e-17
4680.00341 1.34817e-17
4681.99778 1.15554e-17
4684.00218 9.20802e-18
4685.99656 1.25587e-17
4688.00096 1.11983e-17
4689.99534 1.12169e-17
4691.99974 1.35103e-17
4694.00414 1.24200e-17
4695.99852 1.24449e-17
4698.00292 1.24603e-17
4699.99730 1.06576e-17
4702.00170 1.13085e-17
4703.99607 1.22673e-17
4706.00047 1.58463e-17
4708.00487 1.53776e-17
4709.99925 1.68175e-17
4712.00365 1.39889e-17
4713.99803 1.10160e-17
4716.00243 1.15488e-17
4717.99681 1.49273e-17
4720.00121 1.46051e-17
4721.99559 1.13888e-17
4723.99999 1.10915e-17
4726.00439 1.04349e-17
4727.99876 1.32117e-17
4730.00316 1.23427e-17
4731.99754 7.38302e-18
4734.00194 1.05229e-17
4735.99632 1.51834e-17
4738.00072 1.17038e-17
4739.99510 1.28875e-17
4741.99950 1.28761e-17
4744.00390 1.30759e-17
4745.99828 1.48416e-17
4748.00268 1.31945e-17
4749.99705 1.38196e-17
4752.00145 1.26989e-17
4753.99583 1.34777e-17
4756.00023 1.27360e-17
4758.00463 9.46369e-18
4759.99901 1.02122e-17
4762.00341 1.63324e-17
4763.99779 1.68078e-17
4766.00219 1.58120e-17
4767.99657 1.67457e-17
4770.00097 1.64802e-17
4771.99534 1.60049e-17
4773.99974 1.16146e-17
4776.00414 9.46150e-18
4777.99852 1.03880e-17
4780.00292 1.34438e-17
4781.99730 1.18419e-17
4784.00170 9.99415e-18
4785.99608 1.21415e-17
4788.00048 1.34124e-17
4789.99486 1.21243e-17
4791.99926 1.52255e-17
4794.00366 1.41032e-17
4795.99803 1.05037e-17
4798.00243 1.32192e-17
4799.99681 1.28011e-17
4802.00121 1.49986e-17
4803.99559 1.42175e-17
4805.99999 1.29222e-17
4808.00439 1.43868e-17
4809.99877 1.24786e-17
4812.00317 1.25039e-17
4813.99755 1.27088e-17
4816.00195 9.44196e-18
4817.99632 1.08933e-17
4820.00072 1.51801e-17
4822.00512 1.26128e-17
4823.99950 1.20918e-17
4826.00390 1.30108e-17
4827.99828 1.32508e-17
4830.00268 1.24689e-17
4831.99706 1.26789e-17
4834.00146 1.60917e-17
4835.99584 1.34798e-17
4838.00024 9.66649e-18
4840.00464 1.22831e-17
4841.99901 1.37929e-17
4844.00341 1.34613e-17
4845.99779 1.11128e-17
4848.00219 1.22534e-17
4849.99657 1.17532e-17
4852.00097 1.04862e-17
4853.99535 1.19581e-17
4855.99975 1.32610e-17
4858.00415 1.22592e-17
4859.99853 1.43002e-17
4862.00293 1.39789e-17
4863.99730 1.13627e-17
4866.00170 1.33883e-17
4867.99608 1.13496e-17
4870.00048 1.23066e-17
4872.00488 1.31025e-17
4873.99926 1.06809e-17
4876.00366 1.15855e-17
4877.99804 1.11586e-17
4880.00244 1.08631e-17
4881.99682 1.14900e-17
4884.00122 1.30423e-17
4885.99559 1.11396e-17
4887.99999 1.14988e-17
4890.00439 1.17807e-17
4891.99877 1.13128e-17
4894.00317 1.13517e-17
4895.99755 1.05603e-17
4898.00195 1.30724e-17
4899.99633 1.31538e-17
4902.00073 1.39790e-17
4903.99511 1.38700e-17
4905.99951 1.41070e-17
4908.00391 1.40207e-17
4909.99828 1.16785e-17
4912.00268 1.15844e-17
4913.99706 1.10263e-17
4916.00146 9.84849e-18
4917.99584 1.12511e-17
4920.00024 1.12824e-17
4922.00464 1.15210e-17
4923.99902 1.24412e-17
4926.00342 1.20741e-17
4927.99780 1.09937e-17
4930.00220 1.31516e-17
4931.99657 1.20779e-17
4934.00097 1.08241e-17
4935.99535 1.22760e-17
4937.99975 1.23361e-17
4940.00415 1.15098e-17
4941.99853 1.02249e-17
4944.00293 1.23961e-17
4945.99731 1.47618e-17
4948.00171 1.47343e-17
4949.99609 1.02261e-17
4952.00049 1.01015e-17
4953.99486 1.28207e-17
4955.99926 1.57344e-17
4958.00366 1.44611e-17
4959.99804 1.09995e-17
4962.00244 1.09849e-17
4963.99682 1.26051e-17
4966.00122 1.19264e-17
4967.99560 1.25792e-17
4970.00000 1.40855e-17
4972.00440 1.36718e-17
4973.99878 1.19229e-17
4976.00318 8.71507e-18
4977.99755 9.47975e-18
4980.00195 1.27040e-17
4981.99633 1.27903e-17
4984.00073 1.09733e-17
4985.99511 1.03684e-17
4987.99951 1.15018e-17
4990.00391 1.22809e-17
4991.99829 1.17638e-17
4994.00269 1.32199e-17
4995.99707 1.48921e-17
4998.00147 1.25854e-17
4999.99584 1.25618e-17
5002.00024 1.37163e-17
5004.00464 9.51427e-18
5005.99902 1.15163e-17
5008.00342 1.41274e-17
5009.99780 1.32119e-17
5012.00220 1.13601e-17
5013.99658 1.08357e-17
5016.00098 1.06444e-17
5017.99536 1.12387e-17
5019.99976 1.18341e-17
5022.00416 1.24203e-17
5023.99853 1.26745e-17
5026.00293 1.06928e-17
5027.99731 1.07393e-17
5030.00171 1.13162e-17
5031.99609 1.12061e-17
5034.00049 1.02904e-17
5036.00489 1.16714e-17
5037.99927 1.17905e-17
5040.00367 1.33866e-17
5041.99805 9.66134e-18
5044.00245 1.07998e-17
5045.99682 1.20460e-17
5048.00122 1.25256e-17
5049.99560 1.09601e-17
5052.00000 1.04571e-17
5054.00440 1.37035e-17
5055.99878 1.14363e-17
5058.00318 1.11805e-17
5059.99756 1.19637e-17
5062.00196 1.16048e-17
5063.99634 1.20791e-17
5066.00074 1.16720e-17
5068.00514 9.21166e-18
5069.99951 9.58336e-18
5072.00391 1.11981e-17
5073.99829 1.10966e-17
5076.00269 1.30550e-17
5077.99707 1.37193e-17
5080.00147 1.26863e-17
5081.99585 1.41403e-17
5084.00025 1.35120e-17
5086.00465 9.85849e-18
5087.99903 1.34576e-17
5090.00343 1.57881e-17
5091.99780 1.29398e-17
5094.00220 1.21994e-17
5095.99658 1.36908e-17
5098.00098 1.44823e-17
5099.99536 1.14982e-17
5101.99976 1.09890e-17
5104.00416 1.17939e-17
5105.99854 1.28465e-17
5108.00294 1.43171e-17
5109.99732 1.46113e-17
5112.00172 1.11378e-17
5113.99609 1.20686e-17
5116.00049 1.29466e-17
5118.00489 1.26573e-17
5119.99927 1.05032e-17
5122.00367 1.31311e-17
5123.99805 1.37307e-17
5126.00245 1.20390e-17
5127.99683 1.21710e-17
5130.00123 1.37034e-17
5131.99561 1.41002e-17
5134.00001 1.45997e-17
5136.00441 1.35267e-17
5137.99878 1.58596e-17
5140.00318 1.52182e-17
5141.99756 1.40296e-17
5144.00196 1.36816e-17
5145.99634 1.50708e-17
5148.00074 1.31008e-17
5149.99512 1.33752e-17
5151.99952 1.65466e-17
5154.00392 1.58302e-17
5155.99830 1.64606e-17
5158.00270 1.61898e-17
5159.99707 1.60390e-17
5162.00147 1.52221e-17
5163.99585 1.60006e-17
5166.00025 1.58217e-17
5168.00465 1.51825e-17
5169.99903 1.44427e-17
5172.00343 1.50908e-17
5173.99781 1.47793e-17
5176.00221 1.29897e-17
5177.99659 1.45231e-17
5180.00099 1.61797e-17
5181.99536 1.56385e-17
5183.99976 1.52933e-17
5186.00416 1.63027e-17
5187.99854 1.58744e-17
5190.00294 1.54462e-17
5191.99732 1.54444e-17
5194.00172 1.47922e-17
5195.99610 1.48604e-17
5198.00050 1.56853e-17
5199.99488 1.77432e-17
5201.99928 1.73391e-17
5204.00368 1.65901e-17
5205.99805 1.72337e-17
5208.00245 1.76078e-17
5209.99683 1.75399e-17
5212.00123 1.95092e-17
5213.99561 1.54032e-17
5216.00001 1.39918e-17
5218.00441 1.80242e-17
5219.99879 1.85071e-17
5222.00319 1.60879e-17
5223.99757 1.68069e-17
5226.00197 1.97329e-17
5227.99634 2.01024e-17
5230.00074 1.77370e-17
5231.99512 1.81514e-17
5233.99952 1.98271e-17
5236.00392 1.90720e-17
5237.99830 1.68926e-17
5240.00270 1.74576e-17
5241.99708 1.62148e-17
5244.00148 1.45615e-17
5245.99586 1.61298e-17
5248.00026 1.75445e-17
5250.00466 1.82285e-17
5251.99903 1.47848e-17
5254.00343 1.48778e-17
5255.99781 1.78123e-17
5258.00221 1.55864e-17
5259.99659 1.46681e-17
5262.00099 1.41360e-17
5263.99537 1.72007e-17
5265.99977 1.90272e-17
5268.00417 1.69366e-17
5269.99855 1.71211e-17
5272.00295 1.76297e-17
5273.99732 1.86136e-17
5276.00172 1.77964e-17
5277.99610 1.78415e-17
5280.00050 1.79690e-17
5282.00490 1.73889e-17
5283.99928 1.82445e-17
5286.00368 1.92856e-17
5287.99806 2.02040e-17
5290.00246 2.10643e-17
5291.99684 2.10314e-17
5294.00124 2.03182e-17
5295.99561 1.96299e-17
5298.00001 2.02588e-17
5300.00441 1.88280e-17
5301.99879 1.74461e-17
5304.00319 1.88232e-17
5305.99757 1.88559e-17
5308.00197 1.91549e-17
5309.99635 1.83800e-17
5312.00075 1.91254e-17
5313.99513 2.01713e-17
5315.99953 1.81742e-17
5318.00393 1.89808e-17
5319.99830 1.99179e-17
5322.00270 1.82358e-17
5323.99708 1.86391e-17
5326.00148 2.00805e-17
5327.99586 1.87351e-17
5330.00026 1.82295e-17
5332.00466 1.89535e-17
5333.99904 2.08627e-17
5336.00344 2.16170e-17
5337.99782 2.17104e-17
5340.00222 2.19570e-17
5341.99659 2.07576e-17
5344.00099 2.05346e-17
5345.99537 2.11857e-17
5347.99977 2.06484e-17
5350.00417 1.90154e-17
5351.99855 1.88735e-17
5354.00295 2.24939e-17
5355.99733 2.30042e-17
5358.00173 2.27017e-17
5359.99611 2.20218e-17
5362.00051 2.02874e-17
5364.00491 2.09834e-17
5365.99928 2.11565e-17
5368.00368 2.11576e-17
5369.99806 2.11207e-17
5372.00246 2.04400e-17
5373.99684 1.86365e-17
5376.00124 1.76426e-17
5377.99562 1.76225e-17
5380.00002 1.81638e-17
5382.00442 1.90967e-17
5383.99880 2.07532e-17
5386.00320 2.15488e-17
5387.99757 2.18370e-17
5390.00197 2.20849e-17
5391.99635 2.22425e-17
5394.00075 2.23044e-17
5395.99513 2.22854e-17
5397.99953 2.21650e-17
5400.00393 2.21039e-17
5401.99831 2.21601e-17
5404.00271 2.19802e-17
5405.99709 2.13622e-17
5408.00149 2.09607e-17
5409.99586 2.12428e-17
5412.00026 2.19498e-17
5414.00466 2.23553e-17
5415.99904 2.26174e-17
5418.00344 2.30530e-17
5419.99782 2.38055e-17
5422.00222 2.42887e-17
5423.99660 2.42755e-17
5426.00100 2.39399e-17
5427.99538 2.34513e-17
5429.99978 2.23322e-17
5432.00418 2.20566e-17
5433.99855 2.21863e-17
5436.00295 2.27161e-17
5437.99733 2.39222e-17
5440.00173 2.53408e-17
5441.99611 2.58973e-17
5444.00051 2.57659e-17
5445.99489 2.60817e-17
5447.99929 2.68421e-17
5450.00369 2.70245e-17
5451.99807 2.63311e-17
5454.00247 2.54444e-17
5455.99684 2.51230e-17
5458.00124 2.50239e-17
5459.99562 2.52607e-17
5462.00002 2.60870e-17
5464.00442 2.66129e-17
5465.99880 2.68710e-17
5468.00320 2.70443e-17
5469.99758 2.72327e-17
5472.00198 2.73889e-17
5473.99636 2.75067e-17
5476.00076 2.76135e-17
5477.99513 2.76284e-17
5479.99953 2.76376e-17
5482.00393 2.74683e-17
5483.99831 2.69306e-17
5486.00271 2.61482e-17
5487.99709 2.57849e-17
5490.00149 2.56949e-17
5491.99587 2.55834e-17
5494.00027 2.57104e-17
5496.00467 2.55924e-17
5497.99905 2.49056e-17
5500.00345 2.39932e-17
5501.99782 2.37391e-17
5504.00222 2.40437e-17
5505.99660 2.40534e-17
5508.00100 2.42297e-17
5509.99538 2.39961e-17
5511.99978 2.28862e-17
5514.00418 2.16766e-17
5515.99856 2.18259e-17
5518.00296 2.31127e-17
5519.99734 2.37957e-17
5522.00174 2.47132e-17
5523.99611 2.49935e-17
5526.00051 2.43970e-17
5528.00491 2.35219e-17
5529.99929 2.29587e-17
5532.00369 2.23767e-17
5533.99807 2.23094e-17
5536.00247 2.30780e-17
5537.99685 2.31551e-17
5540.00125 2.23998e-17
5541.99563 2.16363e-17
5544.00003 2.14577e-17
5546.00443 2.15873e-17
5547.99880 2.17429e-17
5550.00320 2.23013e-17
5551.99758 2.23589e-17
5554.00198 2.18632e-17
5555.99636 2.14301e-17
5558.00076 2.13756e-17
5559.99514 2.15050e-17
5561.99954 2.15752e-17
5564.00394 2.19636e-17
5565.99832 2.17008e-17
5568.00272 2.05295e-17
5569.99709 1.98562e-17
5572.00149 2.01669e-17
5573.99587 2.10066e-17
5576.00027 2.18295e-17
5578.00467 2.31242e-17
5579.99905 2.38063e-17
5582.00345 2.42347e-17
5583.99783 2.43223e-17
5586.00223 2.39033e-17
5587.99661 2.32749e-17
5590.00101 2.29551e-17
5591.99538 2.27063e-17
5593.99978 2.26660e-17
5596.00418 2.29281e-17
5597.99856 2.30835e-17
5600.00296 2.31307e-17
5601.99734 2.31374e-17
5604.00174 2.31123e-17
5605.99612 2.30156e-17
5608.00052 2.31423e-17
5610.00492 2.35850e-17
5611.99930 2.37546e-17
5614.00370 2.36867e-17
5615.99807 2.35136e-17
5618.00247 2.32116e-17
5619.99685 2.27647e-17
5622.00125 2.29671e-17
5623.99563 2.40970e-17
5626.00003 2.43730e-17
5628.00443 2.39726e-17
