# wavelength flux
3900.00117 5.25352e-18
3901.99555 5.27808e-18
3903.99995 5.33713e-18
3906.00435 5.41673e-18
3907.99872 5.46807e-18
3910.00312 5.48786e-18
3911.99750 5.51334e-18
3914.00190 5.57348e-18
3915.99628 5.62241e-18
3918.00068 5.61142e-18
3920.00508 5.67871e-18
3921.99946 5.74579e-18
3924.00386 5.80594e-18
3925.99824 5.78859e-18
3928.00264 5.78302e-18
3929.99701 5.76164e-18
3932.00141 5.77931e-18
3933.99579 5.84149e-18
3936.00019 5.86349e-18
3938.00459 5.85969e-18
3939.99897 5.89323e-18
3942.00337 5.96284e-18
3943.99775 6.01369e-18
3946.00215 6.03361e-18
3947.99653 6.16499e-18
3950.00093 6.22760e-18
3951.99530 6.25492e-18
3953.99970 6.29215e-18
3956.00410 6.25296e-18
3957.99848 6.24357e-18
3960.00288 6.31401e-18
3961.99726 6.34667e-18
3964.00166 6.36075e-18
3965.99604 6.35876e-18
3968.00044 6.36119e-18
3970.00484 6.31987e-18
3971.99922 6.32636e-18
3974.00362 6.36125e-18
3975.99799 6.42865e-18
3978.00239 6.47088e-18
3979.99677 6.52770e-18
3982.00117 6.52682e-18
3983.99555 6.52260e-18
3985.99995 6.55131e-18
3988.00435 6.59225e-18
3989.99873 6.63711e-18
3992.00313 6.67272e-18
3993.99751 6.67622e-18
3996.00191 6.68904e-18
3997.99628 6.71692e-18
4000.00068 6.72206e-18
4001.99506 6.73863e-18
4003.99946 6.75658e-18
4006.00386 6.76905e-18
4007.99824 6.78352e-18
4010.00264 6.81157e-18
4011.99702 6.82883e-18
4014.00142 6.88636e-18
4015.99580 6.92844e-18
4018.00020 6.95033e-18
4020.00460 6.93792e-18
4021.99897 6.91937e-18
4024.00337 6.96016e-18
4025.99775 6.97263e-18
4028.00215 6.97149e-18
4029.99653 6.94887e-18
4032.00093 6.91653e-18
4033.99531 6.86280e-18
4035.99971 6.83419e-18
4038.00411 6.84789e-18
4039.99849 6.81401e-18
4042.00289 6.75402e-18
4043.99726 6.70609e-18
4046.00166 6.69068e-18
4047.99604 6.66231e-18
4050.00044 6.64135e-18
4052.00484 6.64533e-18
4053.99922 6.66710e-18
4056.00362 6.64735e-18
4057.99800 6.61551e-18
4060.00240 6.62533e-18
4061.99678 6.61233e-18
4064.00118 6.57273e-18
4065.99555 6.56796e-18
4067.99995 6.58599e-18
4070.00435 6.58913e-18
4071.99873 6.60012e-18
4074.00313 6.57467e-18
4075.99751 6.55839e-18
4078.00191 6.53047e-18
4079.99629 6.49218e-18
4082.00069 6.43678e-18
4083.99507 6.38706e-18
4085.99947 6.37578e-18
4088.00387 6.38120e-18
4089.99824 6.35302e-18
4092.00264 6.33576e-18
4093.99702 6.35194e-18
4096.00142 6.35420e-18
4097.99580 6.35049e-18
4100.00020 6.33396e-18
4102.00460 6.29426e-18
4103.99898 6.31326e-18
4106.00338 6.31796e-18
4107.99776 6.25611e-18
4110.00216 6.20948e-18
4111.99653 6.23748e-18
4114.00093 6.28358e-18
4115.99531 6.29827e-18
4117.99971 6.26752e-18
4120.00411 6.24984e-18
4121.99849 6.29901e-18
4124.00289 6.30709e-18
4125.99727 6.26282e-18
4128.00167 6.24589e-18
4129.99605 6.25106e-18
4132.00045 6.25779e-18
4134.00485 6.25270e-18
4135.99922 6.25933e-18
4138.00362 6.24758e-18
4139.99800 6.23456e-18
4142.00240 6.23355e-18
4143.99678 6.24072e-18
4146.00118 6.22994e-18
4147.99556 6.21485e-18
4149.99996 6.22374e-18
4152.00436 6.22814e-18
4153.99874 6.18020e-18
4156.00314 6.12481e-18
4157.99751 6.15160e-18
4160.00191 6.13802e-18
4161.99629 6.09931e-18
4164.00069 6.07275e-18
4165.99507 6.11785e-18
4167.99947 6.08096e-18
4170.00387 6.05935e-18
4171.99825 6.03678e-18
4174.00265 6.03424e-18
4175.99703 6.04560e-18
4178.00143 6.03256e-18
4179.99580 5.99259e-18
4182.00020 5.97091e-18
4184.00460 5.94367e-18
4185.99898 5.94048e-18
4188.00338 5.92723e-18
4189.99776 5.91883e-18
4192.00216 5.91942e-18
4193.99654 5.92139e-18
4196.00094 5.92935e-18
4197.99532 5.92700e-18
4199.99972 5.90472e-18
4202.00412 5.92351e-18
4203.99849 5.92347e-18
4206.00289 5.90254e-18
4207.99727 5.90041e-18
4210.00167 5.90815e-18
4211.99605 5.91255e-18
4214.00045 5.90070e-18
4216.00485 5.89822e-18
4217.99923 5.92837e-18
4220.00363 6.00131e-18
4221.99801 6.04661e-18
4224.00241 6.06626e-18
4225.99678 6.11080e-18
4228.00118 6.15576e-18
4229.99556 6.16870e-18
4231.99996 6.19016e-18
4234.00436 6.24820e-18
4235.99874 6.29207e-18
4238.00314 6.30331e-18
4239.99752 6.34386e-18
4242.00192 6.36217e-18
4243.99630 6.40754e-18
4246.00070 6.40161e-18
4247.99507 6.42741e-18
4249.99947 6.46894e-18
4252.00387 6.50163e-18
4253.99825 6.50804e-18
4256.00265 6.51576e-18
4257.99703 6.48159e-18
4260.00143 6.46735e-18
4261.99581 6.47424e-18
4264.00021 6.50124e-18
4266.00461 6.52139e-18
4267.99899 6.52220e-18
4270.00339 6.53113e-18
4271.99776 6.55058e-18
4274.00216 6.58018e-18
4275.99654 6.59770e-18
4278.00094 6.58231e-18
4279.99532 6.60388e-18
4281.99972 6.63038e-18
4284.00412 6.64843e-18
4285.99850 6.67273e-18
4288.00290 6.68041e-18
4289.99728 6.69090e-18
4292.00168 6.71901e-18
4293.99605 6.72677e-18
4296.00045 6.74656e-18
4297.99483 6.79602e-18
4299.99923 6.79413e-18
4302.00363 6.80250e-18
4303.99801 6.82767e-18
4306.00241 6.83870e-18
4307.99679 6.82693e-18
4310.00119 6.78169e-18
4311.99557 6.73089e-18
4313.99997 6.74705e-18
4316.00437 6.77203e-18
4317.99874 6.79043e-18
4320.00314 6.78790e-18
4321.99752 6.79357e-18
4324.00192 6.81103e-18
4325.99630 6.85191e-18
4328.00070 6.87007e-18
4330.00510 6.86830e-18
4331.99948 6.88391e-18
4334.00388 6.91395e-18
4335.99826 6.93220e-18
4338.00266 6.95408e-18
4339.99703 6.96778e-18
4342.00143 6.99246e-18
4343.99581 7.00844e-18
4346.00021 7.02283e-18
4348.00461 7.08119e-18
4349.99899 7.08971e-18
4352.00339 7.08651e-18
4353.99777 7.11873e-18
4356.00217 7.13771e-18
4357.99655 7.14385e-18
4360.00095 7.15093e-18
4361.99532 7.19352e-18
4363.99972 7.23417e-18
4366.00412 7.24950e-18
4367.99850 7.24455e-18
4370.00290 7.24814e-18
4371.99728 7.28119e-18
4374.00168 7.32418e-18
4375.99606 7.32898e-18
4378.00046 7.37386e-18
4380.00486 7.42777e-18
4381.99924 7.42830e-18
4384.00364 7.42547e-18
4385.99801 7.45736e-18
4388.00241 7.47300e-18
4389.99679 7.49996e-18
4392.00119 7.53016e-18
4393.99557 7.55450e-18
4395.99997 7.57388e-18
4398.00437 7.60830e-18
4399.99875 7.61622e-18
4402.00315 7.65098e-18
4403.99753 7.72708e-18
4406.00193 7.77783e-18
4407.99630 7.80885e-18
4410.00070 7.84057e-18
4411.99508 7.87752e-18
4413.99948 7.90720e-18
4416.00388 7.92944e-18
4417.99826 7.95238e-18
4420.00266 7.98317e-18
4421.99704 8.02711e-18
4424.00144 8.03938e-18
4425.99582 8.06347e-18
4428.00022 8.11661e-18
4430.00462 8.15370e-18
4431.99899 8.17453e-18
4434.00339 8.24669e-18
4435.99777 8.31731e-18
4438.00217 8.36564e-18
4439.99655 8.41939e-18
4442.00095 8.48737e-18
4443.99533 8.56197e-18
4445.99973 8.64207e-18
4448.00413 8.70986e-18
4449.99851 8.75205e-18
4452.00291 8.82809e-18
4453.99728 8.89802e-18
4456.00168 8.95839e-18
4457.99606 9.06197e-18
4460.00046 9.15972e-18
4462.00486 9.23893e-18
4463.99924 9.34724e-18
4466.00364 9.45626e-18
4467.99802 9.54550e-18
4470.00242 9.64481e-18
4471.99680 9.74573e-18
4474.00120 9.83869e-18
4475.99557 9.93981e-18
4477.99997 1.00030e-17
4480.00437 1.01427e-17
4481.99875 1.02721e-17
4484.00315 1.03806e-17
4485.99753 1.04633e-17
4488.00193 1.05486e-17
4489.99631 1.06360e-17
4492.00071 1.07320e-17
4493.99509 1.08265e-17
4495.99949 1.09075e-17
4498.00389 1.10247e-17
4499.99826 1.11341e-17
4502.00266 1.11734e-17
4503.99704 1.12660e-17
4506.00144 1.13886e-17
4507.99582 1.14710e-17
4510.00022 1.15063e-17
4512.00462 1.16058e-17
4513.99900 1.17369e-17
4516.00340 1.18694e-17
4517.99778 1.19467e-17
4520.00218 1.19664e-17
4521.99655 1.20331e-17
4524.00095 1.21197e-17
4525.99533 1.21810e-17
4527.99973 1.22697e-17
4530.00413 1.23929e-17
4531.99851 1.24823e-17
4534.00291 1.25715e-17
4535.99729 1.26673e-17
4538.00169 1.27584e-17
4539.99607 1.28231e-17
4542.00047 1.28976e-17
4543.99484 1.29740e-17
4545.99924 1.30677e-17
4548.00364 1.30948e-17
4549.99802 1.31670e-17
4552.00242 1.32596e-17
4553.99680 1.32720e-17
4556.00120 1.33011e-17
4557.99558 1.33615e-17
4559.99998 1.33994e-17
4562.00438 1.33947e-17
4563.99876 1.34134e-17
4566.00316 1.34569e-17
4567.99753 1.34918e-17
4570.00193 1.35096e-17
4571.99631 1.35420e-17
4574.00071 1.35680e-17
4576.00511 1.35674e-17
4577.99949 1.35900e-17
4580.00389 1.36044e-17
4581.99827 1.36363e-17
4584.00267 1.36993e-17
4585.99705 1.37665e-17
4588.00145 1.38376e-17
4589.99582 1.38934e-17
4592.00022 1.39499e-17
4594.00462 1.39884e-17
4595.99900 1.40171e-17
4598.00340 1.40178e-17
4599.99778 1.40586e-17
4602.00218 1.40945e-17
4603.99656 1.40712e-17
4606.00096 1.40340e-17
4607.99534 1.40386e-17
4609.99974 1.40637e-17
4612.00414 1.40996e-17
4613.99851 1.41279e-17
4616.00291 1.41292e-17
4617.99729 1.40874e-17
4620.00169 1.40696e-17
4621.99607 1.40298e-17
4624.00047 1.39833e-17
4626.00487 1.39365e-17
4627.99925 1.39025e-17
4630.00365 1.38476e-17
4631.99803 1.37677e-17
4634.00243 1.36663e-17
4635.99680 1.36047e-17
4638.00120 1.35536e-17
4639.99558 1.34951e-17
4641.99998 1.34322e-17
4644.00438 1.33980e-17
4645.99876 1.33580e-17
4648.00316 1.33134e-17
4649.99754 1.32663e-17
4652.00194 1.32270e-17
4653.99632 1.32043e-17
4656.00072 1.31666e-17
4657.99509 1.30672e-17
4659.99949 1.29677e-17
4662.00389 1.28841e-17
4663.99827 1.28005e-17
4666.00267 1.26886e-17
4667.99705 1.25795e-17
4670.00145 1.24762e-17
4671.99583 1.23899e-17
4674.00023 1.22847e-17
4676.00463 1.21235e-17
4677.99901 1.20199e-17
4680.00341 1.19508e-17
4681.99778 1.18923e-17
4684.00218 1.18349e-17
4685.99656 1.17624e-17
4688.00096 1.16920e-17
4689.99534 1.16756e-17
4691.99974 1.16633e-17
4694.00414 1.16417e-17
4695.99852 1.16104e-17
4698.00292 1.15577e-17
4699.99730 1.15279e-17
4702.00170 1.14686e-17
4703.99607 1.14168e-17
4706.00047 1.13799e-17
4708.00487 1.13334e-17
4709.99925 1.12824e-17
4712.00365 1.12054e-17
4713.99803 1.11427e-17
4716.00243 1.10767e-17
4717.99681 1.10235e-17
4720.00121 1.09721e-17
4721.99559 1.09648e-17
4723.99999 1.09652e-17
4726.00439 1.09585e-17
4727.99876 1.09644e-17
4730.00316 1.09940e-17
4731.99754 1.10392e-17
4734.00194 1.10629e-17
4735.99632 1.10677e-17
4738.00072 1.10933e-17
4739.99510 1.11181e-17
4741.99950 1.11449e-17
4744.00390 1.11622e-17
4745.99828 1.11666e-17
4748.00268 1.11607e-17
4749.99705 1.11507e-17
4752.00145 1.11340e-17
4753.99583 1.11329e-17
4756.00023 1.11354e-17
4758.00463 1.11262e-17
4759.99901 1.11261e-17
4762.00341 1.11157e-17
4763.99779 1.10609e-17
4766.00219 1.09965e-17
4767.99657 1.09937e-17
4770.00097 1.09953e-17
4771.99534 1.09677e-17
4773.99974 1.09224e-17
4776.00414 1.08866e-17
4777.99852 1.08190e-17
4780.00292 1.07672e-17
4781.99730 1.07599e-17
4784.00170 1.07779e-17
4785.99608 1.08176e-17
4788.00048 1.08800e-17
4789.99486 1.09138e-17
4791.99926 1.09094e-17
4794.00366 1.09229e-17
4795.99803 1.09759e-17
4798.00243 1.09891e-17
4799.99681 1.10349e-17
4802.00121 1.10635e-17
4803.99559 1.11044e-17
4805.99999 1.11538e-17
4808.00439 1.11686e-17
4809.99877 1.11826e-17
4812.00317 1.11939e-17
4813.99755 1.11838e-17
4816.00195 1.11813e-17
4817.99632 1.11589e-17
4820.00072 1.11121e-17
4822.00512 1.11214e-17
4823.99950 1.11438e-17
4826.00390 1.11795e-17
4827.99828 1.12160e-17
4830.00268 1.12573e-17
4831.99706 1.12869e-17
4834.00146 1.13136e-17
4835.99584 1.13278e-17
4838.00024 1.13734e-17
4840.00464 1.14127e-17
4841.99901 1.14211e-17
4844.00341 1.14511e-17
4845.99779 1.14776e-17
4848.00219 1.14909e-17
4849.99657 1.15115e-17
4852.00097 1.15495e-17
4853.99535 1.15326e-17
4855.99975 1.15108e-17
4858.00415 1.15260e-17
4859.99853 1.15285e-17
4862.00293 1.15048e-17
4863.99730 1.14707e-17
4866.00170 1.14769e-17
4867.99608 1.14866e-17
4870.00048 1.14795e-17
4872.00488 1.14798e-17
4873.99926 1.14844e-17
4876.00366 1.15063e-17
4877.99804 1.15005e-17
4880.00244 1.15044e-17
4881.99682 1.15032e-17
4884.00122 1.15210e-17
4885.99559 1.15198e-17
4887.99999 1.15264e-17
4890.00439 1.15342e-17
4891.99877 1.15432e-17
4894.00317 1.15446e-17
4895.99755 1.15417e-17
4898.00195 1.15124e-17
4899.99633 1.14664e-17
4902.00073 1.14317e-17
4903.99511 1.13823e-17
4905.99951 1.13307e-17
4908.00391 1.12651e-17
4909.99828 1.11987e-17
4912.00268 1.11023e-17
4913.99706 1.10519e-17
4916.00146 1.10005e-17
4917.99584 1.09059e-17
4920.00024 1.08032e-17
4922.00464 1.07238e-17
4923.99902 1.06611e-17
4926.00342 1.06241e-17
4927.99780 1.05908e-17
4930.00220 1.05416e-17
4931.99657 1.05220e-17
4934.00097 1.05357e-17
4935.99535 1.05426e-17
4937.99975 1.05257e-17
4940.00415 1.05196e-17
4941.99853 1.05065e-17
4944.00293 1.04931e-17
4945.99731 1.05047e-17
4948.00171 1.05385e-17
4949.99609 1.05868e-17
4952.00049 1.06370e-17
4953.99486 1.06688e-17
4955.99926 1.07347e-17
4958.00366 1.07564e-17
4959.99804 1.07944e-17
4962.00244 1.08470e-17
4963.99682 1.08590e-17
4966.00122 1.08760e-17
4967.99560 1.08937e-17
4970.00000 1.08907e-17
4972.00440 1.08804e-17
4973.99878 1.08654e-17
4976.00318 1.08151e-17
4977.99755 1.07884e-17
4980.00195 1.07437e-17
4981.99633 1.06969e-17
4984.00073 1.06743e-17
4985.99511 1.06552e-17
4987.99951 1.06575e-17
4990.00391 1.06460e-17
4991.99829 1.06068e-17
4994.00269 1.05510e-17
4995.99707 1.05110e-17
4998.00147 1.04495e-17
4999.99584 1.03942e-17
5002.00024 1.03596e-17
5004.00464 1.03053e-17
5005.99902 1.02548e-17
5008.00342 1.02215e-17
5009.99780 1.01888e-17
5012.00220 1.01308e-17
5013.99658 1.01168e-17
5016.00098 1.01110e-17
5017.99536 1.00804e-17
5019.99976 1.00595e-17
5022.00416 1.00276e-17
5023.99853 9.99982e-18
5026.00293 9.96039e-18
5027.99731 9.89965e-18
5030.00171 9.86750e-18
5031.99609 9.83937e-18
5034.00049 9.83734e-18
5036.00489 9.86823e-18
5037.99927 9.88198e-18
5040.00367 9.87606e-18
5041.99805 9.90632e-18
5044.00245 9.94580e-18
5045.99682 9.96056e-18
5048.00122 9.97286e-18
5049.99560 1.00178e-17
5052.00000 1.00731e-17
5054.00440 1.01217e-17
5055.99878 1.01498e-17
5058.00318 1.01917e-17
5059.99756 1.02291e-17
5062.00196 1.02699e-17
5063.99634 1.03133e-17
5066.00074 1.03701e-17
5068.00514 1.04456e-17
5069.99951 1.05234e-17
5072.00391 1.05807e-17
5073.99829 1.06231e-17
5076.00269 1.06740e-17
5077.99707 1.07356e-17
5080.00147 1.07962e-17
5081.99585 1.08545e-17
5084.00025 1.09207e-17
5086.00465 1.09823e-17
5087.99903 1.10562e-17
5090.00343 1.11244e-17
5091.99780 1.11858e-17
5094.00220 1.12374e-17
5095.99658 1.13145e-17
5098.00098 1.14033e-17
5099.99536 1.14785e-17
5101.99976 1.15330e-17
5104.00416 1.15887e-17
5105.99854 1.16254e-17
5108.00294 1.16767e-17
5109.99732 1.17499e-17
5112.00172 1.18105e-17
5113.99609 1.18526e-17
5116.00049 1.18984e-17
5118.00489 1.19396e-17
5119.99927 1.19926e-17
5122.00367 1.20258e-17
5123.99805 1.20443e-17
5126.00245 1.20864e-17
5127.99683 1.21650e-17
5130.00123 1.22363e-17
5131.99561 1.22844e-17
5134.00001 1.23649e-17
5136.00441 1.24259e-17
5137.99878 1.24813e-17
5140.00318 1.25357e-17
5141.99756 1.26081e-17
5144.00196 1.26685e-17
5145.99634 1.27045e-17
5148.00074 1.27384e-17
5149.99512 1.27694e-17
5151.99952 1.28296e-17
5154.00392 1.28507e-17
5155.99830 1.29115e-17
5158.00270 1.29616e-17
5159.99707 1.29913e-17
5162.00147 1.29987e-17
5163.99585 1.30604e-17
5166.00025 1.31135e-17
5168.00465 1.31618e-17
5169.99903 1.31966e-17
5172.00343 1.32333e-17
5173.99781 1.33052e-17
5176.00221 1.33793e-17
5177.99659 1.34580e-17
5180.00099 1.35283e-17
5181.99536 1.35895e-17
5183.99976 1.36922e-17
5186.00416 1.37991e-17
5187.99854 1.39173e-17
5190.00294 1.39875e-17
5191.99732 1.40730e-17
5194.00172 1.41773e-17
5195.99610 1.42528e-17
5198.00050 1.43305e-17
5199.99488 1.43436e-17
5201.99928 1.44042e-17
5204.00368 1.44575e-17
5205.99805 1.44815e-17
5208.00245 1.44902e-17
5209.99683 1.44908e-17
5212.00123 1.45295e-17
5213.99561 1.45383e-17
5216.00001 1.45201e-17
5218.00441 1.45026e-17
5219.99879 1.45086e-17
5222.00319 1.44795e-17
5223.99757 1.44643e-17
5226.00197 1.44728e-17
5227.99634 1.45062e-17
5230.00074 1.45539e-17
5231.99512 1.45405e-17
5233.99952 1.45546e-17
5236.00392 1.45983e-17
5237.99830 1.46264e-17
5240.00270 1.46179e-17
5241.99708 1.46099e-17
5244.00148 1.46285e-17
5245.99586 1.46871e-17
5248.00026 1.47486e-17
5250.00466 1.47864e-17
5251.99903 1.48173e-17
5254.00343 1.49139e-17
5255.99781 1.49661e-17
5258.00221 1.50170e-17
5259.99659 1.50461e-17
5262.00099 1.50771e-17
5263.99537 1.51532e-17
5265.99977 1.52432e-17
5268.00417 1.52940e-17
5269.99855 1.53392e-17
5272.00295 1.53920e-17
5273.99732 1.54437e-17
5276.00172 1.54807e-17
5277.99610 1.54997e-17
5280.00050 1.55157e-17
5282.00490 1.55273e-17
5283.99928 1.55463e-17
5286.00368 1.55897e-17
5287.99806 1.56299e-17
5290.00246 1.56978e-17
5291.99684 1.57720e-17
5294.00124 1.58209e-17
5295.99561 1.58604e-17
5298.00001 1.59378e-17
5300.00441 1.60011e-17
5301.99879 1.60509e-17
5304.00319 1.61115e-17
5305.99757 1.61502e-17
5308.00197 1.61735e-17
5309.99635 1.62079e-17
5312.00075 1.62584e-17
5313.99513 1.62921e-17
5315.99953 1.62978e-17
5318.00393 1.62824e-17
5319.99830 1.62937e-17
5322.00270 1.62767e-17
5323.99708 1.62632e-17
5326.00148 1.62628e-17
5327.99586 1.62340e-17
5330.00026 1.61823e-17
5332.00466 1.62074e-17
5333.99904 1.62191e-17
5336.00344 1.62379e-17
5337.99782 1.62729e-17
5340.00222 1.63135e-17
5341.99659 1.63396e-17
5344.00099 1.63419e-17
5345.99537 1.63645e-17
5347.99977 1.63738e-17
5350.00417 1.63744e-17
5351.99855 1.63835e-17
5354.00295 1.63798e-17
5355.99733 1.63769e-17
5358.00173 1.63544e-17
5359.99611 1.63551e-17
5362.00051 1.63540e-17
5364.00491 1.63367e-17
5365.99928 1.63543e-17
5368.00368 1.63813e-17
5369.99806 1.64001e-17
5372.00246 1.64156e-17
5373.99684 1.64413e-17
5376.00124 1.64845e-17
5377.99562 1.64945e-17
5380.00002 1.65033e-17
5382.00442 1.65100e-17
5383.99880 1.65225e-17
5386.00320 1.64928e-17
5387.99757 1.64750e-17
5390.00197 1.64719e-17
5391.99635 1.64266e-17
5394.00075 1.63897e-17
5395.99513 1.63883e-17
5397.99953 1.63992e-17
5400.00393 1.63869e-17
5401.99831 1.63700e-17
5404.00271 1.63702e-17
5405.99709 1.63750e-17
5408.00149 1.63496e-17
5409.99586 1.63318e-17
5412.00026 1.63088e-17
5414.00466 1.62863e-17
5415.99904 1.62838e-17
5418.00344 1.62824e-17
5419.99782 1.62637e-17
5422.00222 1.62424e-17
5423.99660 1.62342e-17
5426.00100 1.62218e-17
5427.99538 1.61950e-17
5429.99978 1.61720e-17
5432.00418 1.61654e-17
5433.99855 1.61972e-17
5436.00295 1.62470e-17
5437.99733 1.63057e-17
5440.00173 1.63773e-17
5441.99611 1.64353e-17
5444.00051 1.65133e-17
5445.99489 1.66294e-17
5447.99929 1.67551e-17
5450.00369 1.68772e-17
5451.99807 1.69908e-17
5454.00247 1.70738e-17
5455.99684 1.71513e-17
5458.00124 1.72439e-17
5459.99562 1.73306e-17
5462.00002 1.73770e-17
5464.00442 1.74401e-17
5465.99880 1.75089e-17
5468.00320 1.75568e-17
5469.99758 1.75830e-17
5472.00198 1.75883e-17
5473.99636 1.75921e-17
5476.00076 1.76428e-17
5477.99513 1.76833e-17
5479.99953 1.77016e-17
5482.00393 1.77168e-17
5483.99831 1.77206e-17
5486.00271 1.77163e-17
5487.99709 1.76932e-17
5490.00149 1.76602e-17
5491.99587 1.75952e-17
5494.00027 1.75189e-17
5496.00467 1.74463e-17
5497.99905 1.74387e-17
5500.00345 1.74146e-17
5501.99782 1.73573e-17
5504.00222 1.73063e-17
5505.99660 1.72484e-17
5508.00100 1.71628e-17
5509.99538 1.71098e-17
5511.99978 1.70037e-17
5514.00418 1.68673e-17
5515.99856 1.67516e-17
5518.00296 1.66833e-17
5519.99734 1.66036e-17
5522.00174 1.64776e-17
5523.99611 1.63519e-17
5526.00051 1.62124e-17
5528.00491 1.60591e-17
5529.99929 1.59255e-17
5532.00369 1.57972e-17
5533.99807 1.56484e-17
5536.00247 1.55121e-17
5537.99685 1.53725e-17
5540.00125 1.51964e-17
5541.99563 1.50584e-17
5544.00003 1.49377e-17
5546.00443 1.48053e-17
5547.99880 1.46851e-17
5550.00320 1.45885e-17
5551.99758 1.45140e-17
5554.00198 1.44429e-17
5555.99636 1.43707e-17
5558.00076 1.43119e-17
5559.99514 1.42587e-17
5561.99954 1.42160e-17
5564.00394 1.41578e-17
5565.99832 1.40934e-17
5568.00272 1.40677e-17
5569.99709 1.40466e-17
5572.00149 1.40056e-17
5573.99587 1.39347e-17
5576.00027 1.38884e-17
5578.00467 1.38805e-17
5579.99905 1.38405e-17
5582.00345 1.37812e-17
5583.99783 1.37049e-17
5586.00223 1.36503e-17
5587.99661 1.36241e-17
5590.00101 1.36335e-17
5591.99538 1.36330e-17
5593.99978 1.36311e-17
5596.00418 1.36132e-17
5597.99856 1.36345e-17
5600.00296 1.37531e-17
5601.99734 1.37702e-17
5604.00174 1.37081e-17
5605.99612 1.36773e-17
5608.00052 1.36641e-17
5610.00492 1.36029e-17
5611.99930 1.35443e-17
5614.00370 1.34937e-17
5615.99807 1.34346e-17
5618.00247 1.33676e-17
5619.99685 1.33112e-17
5622.00125 1.32391e-17
5623.99563 1.31669e-17
5626.00003 1.31132e-17
5628.00443 1.30606e-17
5629.99881 1.29772e-17
5632.00321 1.28999e-17
5633.99759 1.28746e-17
