# wavelength flux
3300.00407 2.27396e-18
3301.99845 2.27201e-18
3304.00285 2.50535e-18
3305.99723 1.36883e-18
3308.00163 2.00991e-18
3309.99601 1.79271e-18
3312.00041 1.92174e-18
3314.00481 2.70909e-18
3315.99918 2.60333e-18
3318.00358 2.56968e-18
3319.99796 1.91504e-18
3322.00236 1.86923e-18
3323.99674 2.51106e-18
3326.00114 1.64442e-18
3327.99552 1.36766e-18
3329.99992 2.07872e-18
3332.00432 2.32352e-18
3333.99870 2.58041e-18
3336.00310 2.06597e-18
3337.99747 1.88133e-18
3340.00187 1.72345e-18
3341.99625 2.16482e-18
3344.00065 2.05171e-18
3346.00505 2.64781e-18
3347.99943 2.64807e-18
3350.00383 1.99060e-18
3351.99821 2.10125e-18
3354.00261 2.14329e-18
3355.99699 2.50180e-18
3358.00139 2.28561e-18
3359.99576 2.20665e-18
3362.00016 1.94181e-18
3364.00456 1.93173e-18
3365.99894 1.86310e-18
3368.00334 2.38322e-18
3369.99772 2.53651e-18
3372.00212 1.11562e-18
3373.99650 1.23811e-18
3376.00090 2.24263e-18
3377.99528 2.29179e-18
3379.99968 1.79624e-18
3382.00408 1.46013e-18
3383.99845 2.57577e-18
3386.00285 2.46390e-18
3387.99723 2.52970e-18
3390.00163 2.31737e-18
3391.99601 1.97265e-18
3394.00041 1.98204e-18
3396.00481 2.05578e-18
3397.99919 2.05809e-18
3400.00359 2.78853e-18
3401.99797 1.98368e-18
3404.00237 2.58522e-18
3405.99674 2.48786e-18
3408.00114 2.06172e-18
3409.99552 2.42487e-18
3411.99992 2.28158e-18
3414.00432 2.20394e-18
3415.99870 1.75165e-18
3418.00310 2.24834e-18
3419.99748 3.15751e-18
3422.00188 2.72969e-18
3423.99626 2.38130e-18
3426.00066 2.20633e-18
3427.99503 2.34797e-18
3429.99943 2.41883e-18
3432.00383 2.48474e-18
3433.99821 2.61058e-18
3436.00261 2.43344e-18
3437.99699 2.48711e-18
3440.00139 3.00687e-18
3441.99577 2.71425e-18
3444.00017 2.56066e-18
3446.00457 2.36400e-18
3447.99895 2.53199e-18
3450.00335 2.58574e-18
3451.99772 3.01372e-18
3454.00212 2.68737e-18
3455.99650 2.56645e-18
3458.00090 2.77401e-18
3459.99528 2.86829e-18
3461.99968 3.23722e-18
3464.00408 3.54260e-18
3465.99846 3.12272e-18
3468.00286 3.19961e-18
3469.99724 3.33577e-18
3472.00164 2.77857e-18
3473.99601 3.23337e-18
3476.00041 2.99932e-18
3478.00481 3.15567e-18
3479.99919 3.22194e-18
3482.00359 3.58701e-18
3483.99797 3.65231e-18
3486.00237 3.44668e-18
3487.99675 3.62922e-18
3490.00115 3.39186e-18
3491.99553 3.56713e-18
3493.99993 3.73393e-18
3496.00433 3.91051e-18
3497.99870 3.56996e-18
3500.00310 3.71822e-18
3501.99748 3.75517e-18
3504.00188 4.10543e-18
3505.99626 3.78515e-18
3508.00066 3.98803e-18
3509.99504 4.27856e-18
3511.99944 4.54357e-18
3514.00384 4.51645e-18
3515.99822 4.30383e-18
3518.00262 4.28275e-18
3519.99699 4.37450e-18
3522.00139 4.85441e-18
3523.99577 5.08182e-18
3526.00017 5.19211e-18
3528.00457 5.20803e-18
3529.99895 5.45854e-18
3532.00335 5.84754e-18
3533.99773 5.12385e-18
3536.00213 5.35521e-18
3537.99651 5.35547e-18
3540.00091 4.97386e-18
3541.99528 5.30343e-18
3543.99968 5.98803e-18
3546.00408 5.77931e-18
3547.99846 6.18210e-18
3550.00286 5.76000e-18
3551.99724 6.16911e-18
3554.00164 6.00747e-18
3555.99602 6.19495e-18
3558.00042 5.97835e-18
3560.00482 6.36648e-18
3561.99920 6.59304e-18
3564.00360 6.38823e-18
3565.99797 6.22903e-18
3568.00237 6.42259e-18
3569.99675 6.30892e-18
3572.00115 5.90580e-18
3573.99553 6.46441e-18
3575.99993 6.48106e-18
3578.00433 6.28938e-18
3579.99871 6.81817e-18
3582.00311 6.59487e-18
3583.99749 6.09561e-18
3586.00189 5.80590e-18
3587.99626 6.73022e-18
3590.00066 6.70645e-18
3591.99504 7.27483e-18
3593.99944 6.88155e-18
3596.00384 6.78701e-18
3597.99822 7.09887e-18
3600.00262 7.24405e-18
3601.99700 7.35258e-18
3604.00140 7.40244e-18
3605.99578 7.35657e-18
3608.00018 7.34897e-18
3610.00458 6.99288e-18
3611.99895 7.28147e-18
3614.00335 7.39384e-18
3615.99773 7.32243e-18
3618.00213 7.56386e-18
3619.99651 7.54759e-18
3622.00091 7.56253e-18
3623.99529 7.36195e-18
3625.99969 7.04154e-18
3628.00409 7.98071e-18
3629.99847 7.37742e-18
3632.00287 6.95844e-18
3633.99724 7.45224e-18
3636.00164 7.42911e-18
3637.99602 7.50316e-18
3640.00042 7.13358e-18
3642.00482 7.08225e-18
3643.99920 7.31137e-18
3646.00360 7.15193e-18
3647.99798 7.19133e-18
3650.00238 6.31565e-18
3651.99676 6.83152e-18
3654.00116 7.24641e-18
3655.99553 7.58116e-18
3657.99993 8.24165e-18
3660.00433 8.19075e-18
3661.99871 7.95532e-18
3664.00311 7.85721e-18
3665.99749 7.61982e-18
3668.00189 8.69490e-18
3669.99627 8.20673e-18
3672.00067 7.95997e-18
3673.99505 8.21935e-18
3675.99945 8.74589e-18
3678.00385 8.84392e-18
3679.99822 8.84938e-18
3682.00262 8.69714e-18
3683.99700 8.87653e-18
3686.00140 8.76226e-18
3687.99578 8.93369e-18
3690.00018 9.02648e-18
3692.00458 9.23734e-18
3693.99896 9.32900e-18
3696.00336 9.30929e-18
3697.99774 9.11775e-18
3700.00214 9.10454e-18
3701.99651 9.34727e-18
3704.00091 9.31918e-18
3705.99529 8.99548e-18
3707.99969 8.90316e-18
3710.00409 9.07898e-18
3711.99847 8.93764e-18
3714.00287 9.09541e-18
3715.99725 8.81574e-18
3718.00165 8.90857e-18
3719.99603 8.94414e-18
3722.00043 8.73425e-18
3724.00483 8.65271e-18
3725.99920 8.84727e-18
3728.00360 8.88498e-18
3729.99798 8.39643e-18
3732.00238 8.38328e-18
3733.99676 8.25803e-18
3736.00116 8.64971e-18
3737.99554 8.20006e-18
3739.99994 7.88428e-18
3742.00434 7.78881e-18
3743.99872 8.25767e-18
3746.00312 8.34876e-18
3747.99749 7.84898e-18
3750.00189 7.72158e-18
3751.99627 8.08405e-18
3754.00067 8.08769e-18
3755.99505 8.51569e-18
3757.99945 8.36249e-18
3760.00385 8.22158e-18
3761.99823 7.71762e-18
3764.00263 7.78884e-18
3765.99701 7.56361e-18
3768.00141 7.62727e-18
3769.99578 7.84920e-18
3772.00018 7.57727e-18
3774.00458 7.87089e-18
3775.99896 7.78526e-18
3778.00336 7.53205e-18
3779.99774 7.47116e-18
3782.00214 7.37344e-18
3783.99652 7.50683e-18
3786.00092 7.58692e-18
3787.99530 7.24238e-18
3789.99970 7.15794e-18
3792.00410 7.32305e-18
3793.99847 7.55437e-18
3796.00287 7.73084e-18
3797.99725 7.38618e-18
3800.00165 7.13246e-18
3801.99603 7.72636e-18
3804.00043 8.39645e-18
3806.00483 6.54359e-18
3807.99921 7.54632e-18
3810.00361 7.90702e-18
3811.99799 7.81725e-18
3814.00239 7.75804e-18
3815.99676 7.64017e-18
3818.00116 7.82545e-18
3819.99554 7.85841e-18
3821.99994 8.04484e-18
3824.00434 8.28527e-18
3825.99872 8.52797e-18
3828.00312 8.38745e-18
3829.99750 8.60293e-18
3832.00190 8.51828e-18
3833.99628 8.66309e-18
3836.00068 8.67616e-18
3837.99505 8.22224e-18
3839.99945 8.72061e-18
3842.00385 9.16278e-18
3843.99823 9.23465e-18
3846.00263 9.37545e-18
3847.99701 9.44051e-18
3850.00141 9.35161e-18
3851.99579 9.34087e-18
3854.00019 9.77711e-18
3856.00459 1.00645e-17
3857.99897 1.00482e-17
3860.00337 1.01638e-17
3861.99774 1.02831e-17
3864.00214 1.04942e-17
3865.99652 1.05666e-17
3868.00092 1.06689e-17
3869.99530 1.11169e-17
3871.99970 1.12249e-17
3874.00410 1.10421e-17
3875.99848 1.10560e-17
3878.00288 1.12751e-17
3879.99726 1.13771e-17
3882.00166 1.11929e-17
3883.99603 1.13498e-17
3886.00043 1.12435e-17
3888.00483 1.16834e-17
3889.99921 1.18132e-17
3892.00361 1.17887e-17
3893.99799 1.18808e-17
3896.00239 1.21312e-17
3897.99677 1.20844e-17
3900.00117 1.18539e-17
3901.99555 1.20496e-17
3903.99995 1.22952e-17
3906.00435 1.25232e-17
3907.99872 1.25530e-17
3910.00312 1.28304e-17
3911.99750 1.30804e-17
3914.00190 1.27194e-17
3915.99628 1.25963e-17
3918.00068 1.22270e-17
3920.00508 1.21419e-17
3921.99946 1.28085e-17
3924.00386 1.28647e-17
3925.99824 1.28391e-17
3928.00264 1.26149e-17
3929.99701 1.28158e-17
3932.00141 1.25011e-17
3933.99579 1.23861e-17
3936.00019 1.30780e-17
3938.00459 1.28460e-17
3939.99897 1.27906e-17
3942.00337 1.27171e-17
3943.99775 1.27058e-17
3946.00215 1.30765e-17
3947.99653 1.32118e-17
3950.00093 1.34597e-17
3951.99530 1.37412e-17
3953.99970 1.35535e-17
3956.00410 1.34637e-17
3957.99848 1.37063e-17
3960.00288 1.38766e-17
3961.99726 1.38778e-17
3964.00166 1.39114e-17
3965.99604 1.36363e-17
3968.00044 1.33483e-17
3970.00484 1.36982e-17
3971.99922 1.40623e-17
3974.00362 1.41763e-17
3975.99799 1.39247e-17
3978.00239 1.37639e-17
3979.99677 1.39328e-17
3982.00117 1.43262e-17
3983.99555 1.44381e-17
3985.99995 1.43881e-17
3988.00435 1.42143e-17
3989.99873 1.42576e-17
3992.00313 1.42749e-17
3993.99751 1.42473e-17
3996.00191 1.42954e-17
3997.99628 1.42509e-17
4000.00068 1.41553e-17
4001.99506 1.39910e-17
4003.99946 1.40853e-17
4006.00386 1.40286e-17
4007.99824 1.43382e-17
4010.00264 1.44297e-17
4011.99702 1.42713e-17
4014.00142 1.43165e-17
4015.99580 1.40209e-17
4018.00020 1.40360e-17
4020.00460 1.40368e-17
4021.99897 1.38799e-17
4024.00337 1.38192e-17
4025.99775 1.37488e-17
4028.00215 1.37251e-17
4029.99653 1.37494e-17
4032.00093 1.39140e-17
4033.99531 1.37182e-17
4035.99971 1.35150e-17
4038.00411 1.32418e-17
4039.99849 1.35324e-17
4042.00289 1.33437e-17
4043.99726 1.36091e-17
4046.00166 1.36998e-17
4047.99604 1.38814e-17
4050.00044 1.34545e-17
4052.00484 1.30361e-17
4053.99922 1.31986e-17
4056.00362 1.33539e-17
4057.99800 1.33999e-17
4060.00240 1.31276e-17
4061.99678 1.32150e-17
4064.00118 1.33095e-17
4065.99555 1.33863e-17
4067.99995 1.31221e-17
4070.00435 1.32117e-17
4071.99873 1.31949e-17
4074.00313 1.30520e-17
4075.99751 1.31907e-17
4078.00191 1.33226e-17
4079.99629 1.32180e-17
4082.00069 1.32867e-17
4083.99507 1.34353e-17
4085.99947 1.31827e-17
4088.00387 1.31981e-17
4089.99824 1.33982e-17
4092.00264 1.31610e-17
4093.99702 1.32298e-17
4096.00142 1.31698e-17
4097.99580 1.27941e-17
4100.00020 1.29464e-17
4102.00460 1.30896e-17
4103.99898 1.32254e-17
4106.00338 1.32004e-17
4107.99776 1.33009e-17
4110.00216 1.33996e-17
4111.99653 1.34680e-17
4114.00093 1.32973e-17
4115.99531 1.34657e-17
4117.99971 1.35324e-17
4120.00411 1.36074e-17
4121.99849 1.37332e-17
4124.00289 1.37378e-17
4125.99727 1.37237e-17
4128.00167 1.35820e-17
4129.99605 1.39174e-17
4132.00045 1.39172e-17
4134.00485 1.37408e-17
4135.99922 1.38182e-17
4138.00362 1.40636e-17
4139.99800 1.38561e-17
4142.00240 1.38601e-17
4143.99678 1.38966e-17
4146.00118 1.38692e-17
4147.99556 1.41123e-17
4149.99996 1.38636e-17
4152.00436 1.39651e-17
4153.99874 1.39693e-17
4156.00314 1.38893e-17
4157.99751 1.39516e-17
4160.00191 1.40732e-17
4161.99629 1.41655e-17
4164.00069 1.39608e-17
4165.99507 1.39879e-17
4167.99947 1.40233e-17
4170.00387 1.42496e-17
4171.99825 1.44235e-17
4174.00265 1.44469e-17
4175.99703 1.45068e-17
4178.00143 1.44380e-17
4179.99580 1.44082e-17
4182.00020 1.44463e-17
4184.00460 1.41805e-17
4185.99898 1.42242e-17
4188.00338 1.44382e-17
4189.99776 1.44944e-17
4192.00216 1.49601e-17
4193.99654 1.47861e-17
4196.00094 1.46672e-17
4197.99532 1.47565e-17
4199.99972 1.49970e-17
4202.00412 1.49622e-17
4203.99849 1.48012e-17
4206.00289 1.49755e-17
4207.99727 1.49867e-17
4210.00167 1.52337e-17
4211.99605 1.52532e-17
4214.00045 1.52089e-17
4216.00485 1.54444e-17
4217.99923 1.53877e-17
4220.00363 1.54303e-17
4221.99801 1.55227e-17
4224.00241 1.54786e-17
4225.99678 1.54358e-17
4228.00118 1.56319e-17
4229.99556 1.57741e-17
4231.99996 1.56034e-17
4234.00436 1.55616e-17
4235.99874 1.55398e-17
4238.00314 1.57685e-17
4239.99752 1.58768e-17
4242.00192 1.57146e-17
4243.99630 1.57966e-17
4246.00070 1.61403e-17
4247.99507 1.60605e-17
4249.99947 1.58239e-17
4252.00387 1.59569e-17
4253.99825 1.58734e-17
4256.00265 1.58930e-17
4257.99703 1.55711e-17
4260.00143 1.56947e-17
4261.99581 1.60139e-17
4264.00021 1.59661e-17
4266.00461 1.64256e-17
4267.99899 1.62997e-17
4270.00339 1.63200e-17
4271.99776 1.66314e-17
4274.00216 1.65714e-17
4275.99654 1.66036e-17
4278.00094 1.64250e-17
4279.99532 1.66734e-17
4281.99972 1.65585e-17
4284.00412 1.69315e-17
4285.99850 1.68659e-17
4288.00290 1.68925e-17
4289.99728 1.70838e-17
4292.00168 1.70378e-17
4293.99605 1.72441e-17
4296.00045 1.71576e-17
4297.99483 1.72413e-17
4299.99923 1.72637e-17
4302.00363 1.73386e-17
4303.99801 1.72229e-17
4306.00241 1.73020e-17
4307.99679 1.74128e-17
4310.00119 1.72379e-17
4311.99557 1.72245e-17
4313.99997 1.72541e-17
4316.00437 1.72322e-17
4317.99874 1.76094e-17
4320.00314 1.77080e-17
4321.99752 1.74831e-17
4324.00192 1.73231e-17
4325.99630 1.75065e-17
4328.00070 1.77054e-17
4330.00510 1.75910e-17
4331.99948 1.73654e-17
4334.00388 1.75404e-17
4335.99826 1.75222e-17
4338.00266 1.74171e-17
4339.99703 1.76625e-17
4342.00143 1.77480e-17
4343.99581 1.77623e-17
4346.00021 1.76609e-17
4348.00461 1.75316e-17
4349.99899 1.74477e-17
4352.00339 1.75222e-17
4353.99777 1.72256e-17
4356.00217 1.72582e-17
4357.99655 1.73046e-17
4360.00095 1.85037e-17
4361.99532 1.85410e-17
4363.99972 1.76672e-17
4366.00412 1.75853e-17
4367.99850 1.74125e-17
4370.00290 1.78714e-17
4371.99728 1.79484e-17
4374.00168 1.78243e-17
4375.99606 1.80100e-17
4378.00046 1.81035e-17
4380.00486 1.82618e-17
4381.99924 1.81922e-17
4384.00364 1.81675e-17
4385.99801 1.85309e-17
4388.00241 1.86545e-17
4389.99679 1.87889e-17
4392.00119 1.89382e-17
4393.99557 1.90619e-17
4395.99997 1.91484e-17
4398.00437 1.92682e-17
4399.99875 1.93595e-17
4402.00315 1.94146e-17
4403.99753 1.96109e-17
4406.00193 1.99034e-17
4407.99630 1.97708e-17
4410.00070 1.96877e-17
4411.99508 1.96198e-17
4413.99948 1.98016e-17
4416.00388 1.99980e-17
4417.99826 2.01865e-17
4420.00266 2.01570e-17
4421.99704 1.98857e-17
4424.00144 1.96975e-17
4425.99582 1.99077e-17
4428.00022 2.01440e-17
4430.00462 2.06632e-17
4431.99899 2.10028e-17
4434.00339 2.06821e-17
4435.99777 2.04720e-17
4438.00217 2.08229e-17
4439.99655 2.10604e-17
4442.00095 2.14006e-17
4443.99533 2.16053e-17
4445.99973 2.12993e-17
4448.00413 2.15428e-17
4449.99851 2.20751e-17
4452.00291 2.18791e-17
4453.99728 2.21205e-17
4456.00168 2.24995e-17
4457.99606 2.26518e-17
4460.00046 2.28006e-17
4462.00486 2.28211e-17
4463.99924 2.30391e-17
4466.00364 2.31623e-17
4467.99802 2.32146e-17
4470.00242 2.35282e-17
4471.99680 2.36812e-17
4474.00120 2.38023e-17
4475.99557 2.36462e-17
4477.99997 2.37063e-17
4480.00437 2.38967e-17
4481.99875 2.40283e-17
4484.00315 2.39941e-17
4485.99753 2.42294e-17
4488.00193 2.41887e-17
4489.99631 2.44772e-17
4492.00071 2.48743e-17
4493.99509 2.49866e-17
4495.99949 2.48759e-17
4498.00389 2.50395e-17
4499.99826 2.53459e-17
4502.00266 2.52273e-17
4503.99704 2.51288e-17
4506.00144 2.52618e-17
4507.99582 2.53663e-17
4510.00022 2.56005e-17
4512.00462 2.57003e-17
4513.99900 2.58014e-17
4516.00340 2.56699e-17
4517.99778 2.57564e-17
4520.00218 2.60638e-17
4521.99655 2.61339e-17
4524.00095 2.62201e-17
4525.99533 2.61786e-17
4527.99973 2.62615e-17
4530.00413 2.63754e-17
4531.99851 2.63347e-17
4534.00291 2.64811e-17
4535.99729 2.67092e-17
4538.00169 2.68017e-17
4539.99607 2.66845e-17
4542.00047 2.67707e-17
4543.99484 2.71278e-17
4545.99924 2.71010e-17
4548.00364 2.70865e-17
4549.99802 2.70444e-17
4552.00242 2.71298e-17
4553.99680 2.70843e-17
4556.00120 2.71386e-17
4557.99558 2.72088e-17
4559.99998 2.71631e-17
4562.00438 2.73424e-17
4563.99876 2.74490e-17
4566.00316 2.72266e-17
4567.99753 2.73950e-17
4570.00193 2.73247e-17
4571.99631 2.72821e-17
4574.00071 2.72370e-17
4576.00511 2.73683e-17
4577.99949 2.73650e-17
4580.00389 2.75055e-17
4581.99827 2.75545e-17
4584.00267 2.71636e-17
4585.99705 2.74613e-17
4588.00145 2.74456e-17
4589.99582 2.72500e-17
4592.00022 2.70401e-17
4594.00462 2.72501e-17
4595.99900 2.77900e-17
4598.00340 2.74776e-17
4599.99778 2.72205e-17
4602.00218 2.74064e-17
4603.99656 2.73317e-17
4606.00096 2.72541e-17
4607.99534 2.72573e-17
4609.99974 2.70345e-17
4612.00414 2.69168e-17
4613.99851 2.69030e-17
4616.00291 2.69916e-17
4617.99729 2.69449e-17
4620.00169 2.68849e-17
4621.99607 2.67825e-17
4624.00047 2.68768e-17
4626.00487 2.66950e-17
4627.99925 2.64124e-17
4630.00365 2.62904e-17
4631.99803 2.65522e-17
4634.00243 2.61943e-17
4635.99680 2.59993e-17
4638.00120 2.59160e-17
4639.99558 2.57073e-17
4641.99998 2.56515e-17
4644.00438 2.56527e-17
4645.99876 2.54549e-17
4648.00316 2.54350e-17
4649.99754 2.54567e-17
4652.00194 2.49090e-17
4653.99632 2.49917e-17
4656.00072 2.48843e-17
4657.99509 2.47177e-17
4659.99949 2.45334e-17
4662.00389 2.46038e-17
4663.99827 2.42976e-17
4666.00267 2.40579e-17
4667.99705 2.38982e-17
4670.00145 2.39860e-17
4671.99583 2.36668e-17
4674.00023 2.37054e-17
4676.00463 2.36589e-17
4677.99901 2.32763e-17
4680.00341 2.29390e-17
4681.99778 2.26782e-17
4684.00218 2.26789e-17
4685.99656 2.26030e-17
4688.00096 2.25142e-17
4689.99534 2.22902e-17
4691.99974 2.21385e-17
4694.00414 2.23309e-17
4695.99852 2.21460e-17
4698.00292 2.19538e-17
4699.99730 2.17626e-17
4702.00170 2.13592e-17
4703.99607 2.10156e-17
4706.00047 2.10708e-17
4708.00487 2.12957e-17
4709.99925 2.11968e-17
4712.00365 2.11794e-17
4713.99803 2.11278e-17
4716.00243 2.10088e-17
4717.99681 2.07842e-17
4720.00121 2.09144e-17
4721.99559 2.07825e-17
4723.99999 2.06076e-17
4726.00439 2.08474e-17
4727.99876 2.07561e-17
4730.00316 2.05683e-17
4731.99754 2.06824e-17
4734.00194 2.08141e-17
4735.99632 2.09243e-17
4738.00072 2.07241e-17
4739.99510 2.06618e-17
4741.99950 2.07852e-17
4744.00390 2.05525e-17
4745.99828 2.04249e-17
4748.00268 2.06262e-17
4749.99705 2.04117e-17
4752.00145 2.02896e-17
4753.99583 2.03291e-17
4756.00023 2.02575e-17
4758.00463 2.00581e-17
4759.99901 1.98164e-17
4762.00341 1.98075e-17
4763.99779 1.98513e-17
4766.00219 1.97223e-17
4767.99657 1.96823e-17
4770.00097 1.94301e-17
4771.99534 1.93160e-17
4773.99974 1.94440e-17
4776.00414 1.92919e-17
4777.99852 1.93048e-17
4780.00292 1.94929e-17
4781.99730 1.99165e-17
4784.00170 1.96648e-17
4785.99608 1.96550e-17
4788.00048 1.97152e-17
4789.99486 1.96292e-17
4791.99926 1.97568e-17
4794.00366 2.00972e-17
4795.99803 1.99907e-17
4798.00243 1.98316e-17
4799.99681 2.00250e-17
4802.00121 2.04335e-17
4803.99559 2.04268e-17
4805.99999 2.03914e-17
4808.00439 2.04838e-17
4809.99877 2.03206e-17
4812.00317 2.04910e-17
4813.99755 2.05374e-17
4816.00195 2.05487e-17
4817.99632 2.05906e-17
4820.00072 2.03851e-17
4822.00512 2.05741e-17
4823.99950 2.06516e-17
4826.00390 2.05561e-17
4827.99828 2.04828e-17
4830.00268 2.05238e-17
4831.99706 2.06103e-17
4834.00146 2.06592e-17
4835.99584 2.06231e-17
4838.00024 2.03463e-17
4840.00464 2.01642e-17
4841.99901 2.02886e-17
4844.00341 2.04358e-17
4845.99779 2.05146e-17
4848.00219 2.03715e-17
4849.99657 2.04261e-17
4852.00097 2.04233e-17
4853.99535 2.03252e-17
4855.99975 2.03403e-17
4858.00415 2.02975e-17
4859.99853 2.00902e-17
4862.00293 2.03614e-17
4863.99730 2.04007e-17
4866.00170 2.03836e-17
4867.99608 2.06105e-17
4870.00048 2.07445e-17
4872.00488 2.07877e-17
4873.99926 2.08078e-17
4876.00366 2.08711e-17
4877.99804 2.09884e-17
4880.00244 2.10172e-17
4881.99682 2.10737e-17
4884.00122 2.12700e-17
4885.99559 2.12895e-17
4887.99999 2.12797e-17
4890.00439 2.14486e-17
4891.99877 2.14163e-17
4894.00317 2.12942e-17
4895.99755 2.14214e-17
4898.00195 2.13333e-17
4899.99633 2.14412e-17
4902.00073 2.15154e-17
4903.99511 2.13053e-17
4905.99951 2.13032e-17
4908.00391 2.14682e-17
4909.99828 2.13637e-17
4912.00268 2.12132e-17
4913.99706 2.13252e-17
4916.00146 2.14019e-17
4917.99584 2.12582e-17
4920.00024 2.10190e-17
4922.00464 2.11724e-17
4923.99902 2.13583e-17
4926.00342 2.12182e-17
4927.99780 2.13635e-17
4930.00220 2.15289e-17
4931.99657 2.13290e-17
4934.00097 2.14191e-17
4935.99535 2.15395e-17
4937.99975 2.14537e-17
4940.00415 2.13153e-17
4941.99853 2.14227e-17
4944.00293 2.15409e-17
4945.99731 2.14050e-17
4948.00171 2.13433e-17
4949.99609 2.13361e-17
4952.00049 2.12730e-17
4953.99486 2.14097e-17
4955.99926 2.13937e-17
4958.00366 2.15658e-17
4959.99804 2.16053e-17
4962.00244 2.16259e-17
4963.99682 2.15688e-17
4966.00122 2.15260e-17
4967.99560 2.14817e-17
4970.00000 2.13338e-17
4972.00440 2.13282e-17
4973.99878 2.15842e-17
4976.00318 2.16093e-17
4977.99755 2.15199e-17
4980.00195 2.15956e-17
4981.99633 2.14599e-17
4984.00073 2.15142e-17
4985.99511 2.18119e-17
4987.99951 2.17415e-17
4990.00391 2.15311e-17
4991.99829 2.16069e-17
4994.00269 2.15805e-17
4995.99707 2.13485e-17
4998.00147 2.12336e-17
4999.99584 2.12540e-17
5002.00024 2.14087e-17
5004.00464 2.15271e-17
5005.99902 2.13433e-17
5008.00342 2.16639e-17
5009.99780 2.16124e-17
5012.00220 2.14337e-17
5013.99658 2.13516e-17
5016.00098 2.14369e-17
5017.99536 2.16484e-17
5019.99976 2.13357e-17
5022.00416 2.13839e-17
5023.99853 2.17808e-17
5026.00293 2.16687e-17
5027.99731 2.17995e-17
5030.00171 2.17626e-17
5031.99609 2.19280e-17
5034.00049 2.19225e-17
