# wavelength flux
3300.0 1.5613107458391074e-16
3301.0 1.5613091377476076e-16
3302.0 1.5613075296577064e-16
3303.0 1.5613059215694025e-16
3304.0 1.5613043134826962e-16
3305.0 1.5613027053975878e-16
3306.0 1.561301097314077e-16
3307.0 1.561299489232164e-16
3308.0 1.5612978811518484e-16
3309.0 1.5612962730731308e-16
3310.0 1.561294664996011e-16
3311.0 1.561293056920489e-16
3312.0 1.5612914488465642e-16
3313.0 1.5612898407742376e-16
3314.0 1.5612882327035083e-16
3315.0 1.5612866246343768e-16
3316.0 1.5612850165668436e-16
3317.0 1.5612834085009075e-16
3318.0 1.561281800436569e-16
3319.0 1.5612801923738287e-16
3320.0 1.5612785843126857e-16
3321.0 1.5612769762531406e-16
3322.0 1.561275368195193e-16
3323.0 1.5612737601388433e-16
3324.0 1.5612721520840913e-16
3325.0 1.5612705440309365e-16
3326.0 1.5612689359793802e-16
3327.0 1.5612673279294212e-16
3328.0 1.56126571988106e-16
3329.0 1.5612641118342962e-16
3330.0 1.56126250378913e-16
3331.0 1.561260895745562e-16
3332.0 1.5612592877035912e-16
3333.0 1.5612576796632184e-16
3334.0 1.561256071624443e-16
3335.0 1.5612544635872655e-16
3336.0 1.561252855551686e-16
3337.0 1.5612512475177035e-16
3338.0 1.561249639485319e-16
3339.0 1.561248031454532e-16
3340.0 1.5612464234253428e-16
3341.0 1.561244815397751e-16
3342.0 1.5612432073717572e-16
3343.0 1.561241599347361e-16
3344.0 1.5612399913245626e-16
3345.0 1.5612383833033616e-16
3346.0 1.5612367752837583e-16
3347.0 1.5612351672657527e-16
3348.0 1.5612335592493448e-16
3349.0 1.5612319512345346e-16
3350.0 1.561230343221322e-16
3351.0 1.5612287352097067e-16
3352.0 1.5612271271996895e-16
3353.0 1.5612255191912698e-16
3354.0 1.5612239111844477e-16
3355.0 1.5612223031792234e-16
3356.0 1.5612206951755962e-16
3357.0 1.5612190871735673e-16
3358.0 1.5612174791731357e-16
3359.0 1.5612158711743021e-16
3360.0 1.5612142631770658e-16
3361.0 1.561212655181427e-16
3362.0 1.5612110471873863e-16
3363.0 1.5612094391949427e-16
3364.0 1.5612078312040976e-16
3365.0 1.5612062232148494e-16
3366.0 1.561204615227199e-16
3367.0 1.5612030072411459e-16
3368.0 1.561201399256691e-16
3369.0 1.561199791273833e-16
3370.0 1.5611981832925736e-16
3371.0 1.561196575312911e-16
3372.0 1.5611949673348462e-16
3373.0 1.5611933593583793e-16
3374.0 1.56119175138351e-16
3375.0 1.561190143410238e-16
3376.0 1.5611885354385637e-16
3377.0 1.5611869274684873e-16
3378.0 1.561185319500008e-16
3379.0 1.5611837115331268e-16
3380.0 1.5611821035678427e-16
3381.0 1.5611804956041568e-16
3382.0 1.5611788876420681e-16
3383.0 1.5611772796815774e-16
3384.0 1.5611756717226836e-16
3385.0 1.5611740637653882e-16
3386.0 1.5611724558096898e-16
3387.0 1.561170847855589e-16
3388.0 1.5611692399030862e-16
3389.0 1.561167631952181e-16
3390.0 1.561166024002873e-16
3391.0 1.5611644160551627e-16
3392.0 1.56116280810905e-16
3393.0 1.561161200164535e-16
3394.0 1.5611595922216175e-16
3395.0 1.5611579842802978e-16
3396.0 1.5611563763405753e-16
3397.0 1.5611547684024507e-16
3398.0 1.5611531604659235e-16
3399.0 1.561151552530994e-16
3400.0 1.561149944597662e-16
3401.0 1.5611483366659273e-16
3402.0 1.5611467287357907e-16
3403.0 1.5611451208072513e-16
3404.0 1.5611435128803095e-16
3405.0 1.5611419049549655e-16
3406.0 1.5611402970312189e-16
3407.0 1.56113868910907e-16
3408.0 1.5611370811885182e-16
3409.0 1.5611354732695647e-16
3410.0 1.5611338653522084e-16
3411.0 1.5611322574364497e-16
3412.0 1.5611306495222883e-16
3413.0 1.5611290416097248e-16
3414.0 1.5611274336987585e-16
3415.0 1.5611258257893896e-16
3416.0 1.561124217881619e-16
3417.0 1.5611226099754457e-16
3418.0 1.5611210020708694e-16
3419.0 1.561119394167891e-16
3420.0 1.5611177862665106e-16
3421.0 1.5611161783667274e-16
3422.0 1.5611145704685416e-16
3423.0 1.5611129625719532e-16
3424.0 1.5611113546769623e-16
3425.0 1.5611097467835694e-16
3426.0 1.5611081388917739e-16
3427.0 1.561106531001576e-16
3428.0 1.5611049231129754e-16
3429.0 1.5611033152259722e-16
3430.0 1.5611017073405667e-16
3431.0 1.561100099456759e-16
3432.0 1.5610984915745486e-16
3433.0 1.5610968836939354e-16
3434.0 1.5610952758149207e-16
3435.0 1.5610936679375026e-16
3436.0 1.5610920600616823e-16
3437.0 1.5610904521874596e-16
3438.0 1.5610888443148344e-16
3439.0 1.5610872364438064e-16
3440.0 1.5610856285743763e-16
3441.0 1.5610840207065434e-16
3442.0 1.5610824128403083e-16
3443.0 1.5610808049756705e-16
3444.0 1.5610791971126305e-16
3445.0 1.5610775892511878e-16
3446.0 1.5610759813913427e-16
3447.0 1.5610743735330947e-16
3448.0 1.5610727656764447e-16
3449.0 1.561071157821392e-16
3450.0 1.561069549967937e-16
3451.0 1.561067942116079e-16
3452.0 1.5610663342658192e-16
3453.0 1.5610647264171564e-16
3454.0 1.5610631185700912e-16
3455.0 1.5610615107246233e-16
3456.0 1.5610599028807533e-16
3457.0 1.5610582950384805e-16
3458.0 1.5610566871978054e-16
3459.0 1.5610550793587277e-16
3460.0 1.5610534715212473e-16
3461.0 1.5610518636853645e-16
3462.0 1.5610502558510794e-16
3463.0 1.5610486480183913e-16
3464.0 1.5610470401873013e-16
3465.0 1.5610454323578085e-16
3466.0 1.561043824529913e-16
3467.0 1.561042216703615e-16
3468.0 1.5610406088789144e-16
3469.0 1.5610390010558117e-16
3470.0 1.561037393234306e-16
3471.0 1.5610357854143983e-16
3472.0 1.5610341775960874e-16
3473.0 1.5610325697793744e-16
3474.0 1.5610309619642586e-16
3475.0 1.5610293541507403e-16
3476.0 1.5610277463388197e-16
3477.0 1.5610261385284967e-16
3478.0 1.5610245307197707e-16
3479.0 1.5610229229126424e-16
3480.0 1.5610213151071118e-16
3481.0 1.561019707303178e-16
3482.0 1.561018099500842e-16
3483.0 1.5610164917001034e-16
3484.0 1.5610148839009623e-16
3485.0 1.5610132761034186e-16
3486.0 1.5610116683074724e-16
3487.0 1.5610100605131237e-16
3488.0 1.561008452720372e-16
3489.0 1.5610068449292185e-16
3490.0 1.561005237139662e-16
3491.0 1.561003629351703e-16
3492.0 1.5610020215653415e-16
3493.0 1.5610004137805774e-16
3494.0 1.5609988059974108e-16
3495.0 1.5609971982158413e-16
3496.0 1.5609955904358695e-16
3497.0 1.5609939826574952e-16
3498.0 1.5609923748807178e-16
3499.0 1.5609907671055384e-16
3500.0 1.5609891593319564e-16
3501.0 1.5609875515599716e-16
3502.0 1.5609859437895842e-16
3502.1 4.1e-17
3506.17 4.3423e-17
3510.25 3.8776e-17
3514.32 3.4618e-17
3518.4 3.6719e-17
3522.47 3.7452e-17
3526.54 4.7789e-17
3530.62 4.3027e-17
3534.69 3.6019e-17
3538.77 3.8953e-17
3542.84 3.8299e-17
3546.91 4.607e-17
3550.99 3.9987e-17
3555.06 3.478e-17
3559.14 3.7356e-17
3563.21 3.0967e-17
3567.29 2.8021e-17
3571.36 4.4599e-17
3575.43 4.1247e-17
3579.51 3.5072e-17
3583.58 4.2873e-17
3587.66 3.4834e-17
3591.73 3.4308e-17
3595.8 4.3366e-17
3599.88 4.1902e-17
3603.95 4.1248e-17
3608.03 3.8704e-17
3612.1 3.4465e-17
3616.18 3.5193e-17
3620.25 3.958e-17
3624.32 5.1027e-17
3628.4 4.1813e-17
3632.47 4.2774e-17
3636.55 3.6162e-17
3640.62 3.903e-17
3644.7 3.4821e-17
3648.77 3.5446e-17
3652.84 4.2569e-17
3656.92 4.2366e-17
3660.99 3.3611e-17
3665.07 3.455e-17
3669.14 3.9792e-17
3673.21 3.9841e-17
3677.29 3.8703e-17
3681.36 3.601e-17
3685.44 3.9375e-17
3689.51 3.8657e-17
3693.59 3.5357e-17
3697.66 3.6793e-17
3701.73 3.7187e-17
3705.81 4.0825e-17
3709.88 3.6724e-17
3713.96 3.7001e-17
3718.03 4.1343e-17
3722.1 3.5728e-17
3726.18 3.6555e-17
3730.25 4.216e-17
3734.33 4.176e-17
3738.4 3.9345e-17
3742.48 4.6191e-17
3746.55 6.7023e-17
3750.62 7.9519e-17
3754.7 7.3867e-17
3758.77 8.1128e-17
3762.85 6.7458e-17
3766.92 4.8759e-17
3771.0 4.4112e-17
3775.07 4.1877e-17
3779.14 3.6445e-17
3783.22 4.269e-17
3787.29 4.1221e-17
3791.37 3.3369e-17
3795.44 3.4769e-17
3799.51 3.641e-17
3803.59 3.4207e-17
3807.66 3.186e-17
3811.74 3.7787e-17
3815.81 3.7618e-17
3819.89 3.7049e-17
3823.96 4.1979e-17
3828.03 3.9305e-17
3832.11 3.5702e-17
3836.18 3.9361e-17
3840.26 3.9574e-17
3844.33 4.0276e-17
3848.4 3.3451e-17
3852.48 3.4909e-17
3856.55 3.309e-17
3860.63 3.1705e-17
3864.7 3.1236e-17
3868.78 3.3623e-17
3872.85 3.539e-17
3876.92 3.9005e-17
3881.0 3.9854e-17
3885.07 4.2514e-17
3889.15 4.3185e-17
3893.22 4.8576e-17
3897.3 4.7752e-17
3901.37 4.3277e-17
3905.44 4.3342e-17
3909.52 4.0798e-17
3913.59 4.3406e-17
3917.67 4.3458e-17
3921.74 4.9313e-17
3925.81 5.3685e-17
3929.89 5.1223e-17
3933.96 5.1392e-17
3938.04 4.9041e-17
3942.11 5.5651e-17
3946.19 5.6742e-17
3950.26 5.3603e-17
3954.33 5.701e-17
3958.41 6.8586e-17
3962.48 6.9341e-17
3966.56 6.7509e-17
3970.63 6.585e-17
3974.7 6.8205e-17
3978.78 7.8668e-17
3982.85 7.9476e-17
3986.93 7.6587e-17
3991.0 7.4331e-17
3995.08 6.8916e-17
3999.15 7.3678e-17
4003.22 7.48e-17
4007.3 7.1173e-17
4011.37 6.4732e-17
4015.45 5.2178e-17
4019.52 6.8787e-17
4023.6 7.1605e-17
4027.67 6.9522e-17
4031.74 7.2251e-17
4035.82 7.2725e-17
4039.89 7.2252e-17
4043.97 6.8591e-17
4048.04 5.6177e-17
4052.11 4.7637e-17
4056.19 4.6181e-17
4060.26 4.4136e-17
4064.34 4.3882e-17
4068.41 4.1922e-17
4072.49 4.2429e-17
4076.56 5.0575e-17
4080.63 5.0145e-17
4084.71 5.3059e-17
4088.78 6.4734e-17
4092.86 6.9233e-17
4096.93 7.7313e-17
4101.0 8.9143e-17
4105.08 9.1684e-17
4109.15 9.7541e-17
4113.23 9.6983e-17
4117.3 9.8936e-17
4121.38 1.0501e-16
4125.45 9.8912e-17
4129.52 9.4483e-17
4133.6 9.7521e-17
4137.67 9.4621e-17
4141.75 8.7052e-17
4145.82 8.4248e-17
4149.89 8.3051e-17
4153.97 8.238e-17
4158.04 8.3927e-17
4162.12 8.5171e-17
4166.19 9.0131e-17
4170.27 9.5214e-17
4174.34 9.6166e-17
4178.41 8.6723e-17
4182.49 7.9958e-17
4186.56 7.9551e-17
4190.64 7.7497e-17
4194.71 7.0038e-17
4198.79 6.8986e-17
4202.86 6.4788e-17
4206.93 5.6258e-17
4211.01 6.7258e-17
4215.08 6.7145e-17
4219.16 6.9704e-17
4223.23 7.0091e-17
4227.3 7.4935e-17
4231.38 7.9515e-17
4235.45 8.1877e-17
4239.53 8.1595e-17
4243.6 8.021e-17
4247.68 7.453e-17
4251.75 7.6981e-17
4255.82 7.298e-17
4259.9 6.4529e-17
4263.97 6.0649e-17
4268.05 5.8173e-17
4272.12 4.8763e-17
4276.19 4.8996e-17
4280.27 4.8807e-17
4284.34 4.3197e-17
4288.42 4.2033e-17
4292.49 3.9283e-17
4296.57 3.6883e-17
4300.64 3.6017e-17
4304.71 3.6735e-17
4308.79 3.9052e-17
4312.86 4.0643e-17
4316.94 4.728e-17
4321.01 5.5912e-17
4325.09 5.8603e-17
4329.16 6.3064e-17
4333.23 6.9231e-17
4337.31 7.9191e-17
4341.38 7.8623e-17
4345.46 7.6807e-17
4349.53 7.887e-17
4353.6 7.8231e-17
4357.68 7.5217e-17
4361.75 7.0799e-17
4365.83 7.4354e-17
4369.9 7.8298e-17
4373.98 7.4734e-17
4378.05 7.4868e-17
4382.12 6.988e-17
4386.2 6.6598e-17
4390.27 7.3621e-17
4394.35 8.0373e-17
4398.42 7.6884e-17
4402.49 7.6252e-17
4406.57 8.2554e-17
4410.64 8.4569e-17
4414.72 7.8853e-17
4418.79 7.609e-17
4422.87 7.2862e-17
4426.94 7.1626e-17
4431.01 7.0583e-17
4435.09 7.4027e-17
4439.16 7.5469e-17
4443.24 7.3388e-17
4447.31 6.8604e-17
4451.39 6.9506e-17
4455.46 7.3652e-17
4459.53 7.7693e-17
4463.61 8.1775e-17
4467.68 8.7767e-17
4471.76 8.0076e-17
4475.83 7.5788e-17
4479.9 7.1998e-17
4483.98 6.5868e-17
4488.05 7.2055e-17
4492.13 6.8297e-17
4496.2 6.1035e-17
4500.28 6.0676e-17
4504.35 6.1588e-17
4508.42 5.7321e-17
4512.5 5.5847e-17
4516.57 5.2732e-17
4520.65 5.4646e-17
4524.72 6.0198e-17
4528.79 5.7038e-17
4532.87 5.107e-17
4536.94 5.6676e-17
4541.02 6.0392e-17
4545.09 6.6198e-17
4549.17 6.9088e-17
4553.24 6.8777e-17
4557.31 7.5921e-17
4561.39 7.7358e-17
4565.46 8.1865e-17
4569.54 9.4416e-17
4573.61 1.0591e-16
4577.69 1.1739e-16
4581.76 1.2316e-16
4585.83 1.2332e-16
4589.91 1.2873e-16
4593.98 1.4123e-16
4598.06 1.4395e-16
4602.13 1.4093e-16
4606.2 1.4573e-16
4610.28 1.3945e-16
4614.35 1.435e-16
4618.43 1.4612e-16
4622.5 1.4483e-16
4626.58 1.4879e-16
4630.65 1.4804e-16
4634.72 1.445e-16
4638.8 1.4361e-16
4642.87 1.4454e-16
4646.95 1.4634e-16
4651.02 1.5419e-16
4655.09 1.5122e-16
4659.17 1.4976e-16
4663.24 1.5346e-16
4667.32 1.5446e-16
4671.39 1.6068e-16
4675.47 1.6198e-16
4679.54 1.6308e-16
4683.61 1.6401e-16
4687.69 1.6342e-16
4691.76 1.6238e-16
4695.84 1.6017e-16
4699.91 1.5961e-16
4703.99 1.5638e-16
4708.06 1.5227e-16
4712.13 1.5705e-16
4716.21 1.5276e-16
4720.28 1.5422e-16
4724.36 1.5801e-16
4728.43 1.5976e-16
4732.5 1.6037e-16
4736.58 1.5793e-16
4740.65 1.5587e-16
4744.73 1.5157e-16
4748.8 1.5252e-16
4752.88 1.4863e-16
4756.95 1.4058e-16
4761.02 1.3007e-16
4765.1 1.1721e-16
4769.17 1.0111e-16
4773.25 8.8143e-17
4777.32 7.2262e-17
4781.39 5.9544e-17
4785.47 4.8592e-17
4789.54 3.7015e-17
4793.62 3.2894e-17
4797.69 3.3349e-17
4801.77 3.3657e-17
4805.84 3.4775e-17
4809.91 2.9305e-17
4813.99 2.8237e-17
4818.06 2.7474e-17
4822.14 2.6312e-17
4826.21 3.5821e-17
4830.29 4.5317e-17
4834.36 5.5028e-17
4838.43 7.3104e-17
4842.51 1.0095e-16
4846.58 1.3125e-16
4850.66 1.5851e-16
4854.73 1.7595e-16
4858.8 1.8245e-16
4862.88 1.8634e-16
4866.95 1.9187e-16
4871.03 1.9345e-16
4875.1 1.9716e-16
4879.18 1.9359e-16
4883.25 1.8726e-16
4887.32 1.87e-16
4891.4 1.7892e-16
4895.47 1.6525e-16
4899.55 1.7041e-16
4903.62 1.6815e-16
4907.69 1.5397e-16
4911.77 1.5472e-16
4915.84 1.7103e-16
4919.92 1.8533e-16
4923.99 1.8324e-16
4928.07 1.8762e-16
4932.14 2.0362e-16
4936.21 2.0966e-16
4940.29 2.1626e-16
4944.36 2.1982e-16
4948.44 2.0982e-16
4952.51 2.0817e-16
4956.59 2.0698e-16
4960.66 1.933e-16
4964.73 1.7875e-16
4968.81 1.6503e-16
4972.88 1.4615e-16
4976.96 1.2764e-16
4981.03 1.1749e-16
4985.1 1.1232e-16
4989.18 1.0705e-16
4993.25 1.0215e-16
4997.33 1.0213e-16
5001.4 1.1483e-16
5005.48 1.2536e-16
5009.55 1.3874e-16
5013.62 1.5516e-16
5017.7 1.6712e-16
5021.77 1.7347e-16
5025.85 1.8778e-16
5029.92 2.0198e-16
5033.99 2.1474e-16
5038.07 2.2098e-16
5042.14 2.2512e-16
5046.22 2.2563e-16
5050.29 2.207e-16
5054.37 2.1484e-16
5058.44 1.9279e-16
5062.51 1.9479e-16
5066.59 2.038e-16
5070.66 1.9995e-16
5074.74 1.9387e-16
5078.81 1.8978e-16
5082.89 1.7816e-16
5086.96 1.7125e-16
5091.03 1.6447e-16
5095.11 1.6062e-16
5099.18 1.5345e-16
5103.26 1.4786e-16
5107.33 1.4084e-16
5111.4 1.2616e-16
5115.48 1.1948e-16
5119.55 1.1492e-16
5123.63 1.0196e-16
5127.7 9.1198e-17
5131.78 8.7596e-17
5135.85 8.3328e-17
5139.92 8.2593e-17
5144.0 8.4716e-17
5148.07 8.4135e-17
5152.15 8.9422e-17
5156.22 9.3389e-17
5160.29 9.7391e-17
5164.37 1.0071e-16
5168.44 1.0455e-16
5172.52 1.0805e-16
5176.59 1.1679e-16
5180.67 1.277e-16
5184.74 1.2919e-16
5188.81 1.2493e-16
5192.89 1.319e-16
5196.96 1.3471e-16
5201.04 1.3606e-16
5205.11 1.3583e-16
5209.19 1.3432e-16
5213.26 1.3989e-16
5217.33 1.4768e-16
5221.41 1.527e-16
5225.48 1.5728e-16
5229.56 1.6297e-16
5233.63 1.6581e-16
5237.7 1.6128e-16
5241.78 1.5809e-16
5245.85 1.5794e-16
5249.93 1.5648e-16
5254.0 1.525e-16
5258.08 1.4695e-16
5262.15 1.445e-16
5266.22 1.471e-16
5270.3 1.5382e-16
5274.37 1.5484e-16
5278.45 1.5626e-16
5282.52 1.5398e-16
5286.59 1.5408e-16
5290.67 1.5775e-16
5294.74 1.6257e-16
5298.82 1.5936e-16
5302.89 1.6252e-16
5306.97 1.6474e-16
5311.04 1.6463e-16
5315.11 1.6351e-16
5319.19 1.6114e-16
5323.26 1.6656e-16
5327.34 1.6905e-16
5331.41 1.7422e-16
5335.49 1.7561e-16
5339.56 1.7813e-16
5343.63 1.7802e-16
5347.71 1.7889e-16
5351.78 1.8106e-16
5355.86 1.8208e-16
5359.93 1.8625e-16
5364.0 1.8347e-16
5368.08 1.8104e-16
5372.15 1.8356e-16
5376.23 1.772e-16
5380.3 1.7833e-16
5384.38 1.7962e-16
5388.45 1.7874e-16
5392.52 1.7725e-16
5396.6 1.7604e-16
5400.67 1.713e-16
5404.75 1.6794e-16
5408.82 1.6965e-16
5412.89 1.678e-16
5416.97 1.6981e-16
5421.04 1.7519e-16
5425.12 1.8005e-16
5429.19 1.8468e-16
5433.27 1.8182e-16
5437.34 1.7723e-16
5441.41 1.856e-16
5445.49 1.8879e-16
5449.56 1.8844e-16
5453.64 1.9805e-16
5457.71 2.0413e-16
5461.79 2.0845e-16
5465.86 2.1295e-16
5469.93 2.1264e-16
5474.01 2.17e-16
5478.08 2.1538e-16
5482.16 2.1687e-16
5486.23 2.1201e-16
5490.3 2.0748e-16
5494.38 2.0444e-16
5498.45 2.0053e-16
5502.53 1.9441e-16
5506.6 1.9028e-16
5510.68 1.9196e-16
5514.75 1.9205e-16
5518.82 1.9339e-16
5522.9 1.946e-16
5526.97 2.0183e-16
5531.05 2.1084e-16
5535.12 2.1237e-16
5539.19 2.2287e-16
5543.27 2.3791e-16
5547.34 2.4203e-16
5551.42 2.4832e-16
5555.49 2.4326e-16
5559.57 2.2364e-16
5563.64 2.4486e-16
5567.71 2.6412e-16
5571.79 2.6601e-16
5575.86 2.586e-16
5579.94 2.3971e-16
5584.01 2.2735e-16
5588.09 2.1867e-16
5592.16 2.1638e-16
5596.23 2.1976e-16
5600.31 2.1792e-16
5604.38 2.1231e-16
5608.46 2.1185e-16
5612.53 2.121e-16
5616.6 2.1278e-16
5620.68 2.1237e-16
5624.75 2.056e-16
5628.83 2.0328e-16
5632.9 2.0579e-16
5636.98 1.9422e-16
5641.05 1.8943e-16
5645.12 1.9069e-16
5649.2 1.8118e-16
5653.27 1.7459e-16
5657.35 1.7235e-16
5661.42 1.6746e-16
5665.49 1.6651e-16
5669.57 1.6892e-16
5673.64 1.6966e-16
5677.72 1.7091e-16
5681.79 1.714e-16
5685.87 1.7696e-16
5689.94 1.8448e-16
5694.01 1.8762e-16
5698.09 1.9055e-16
5702.16 1.8736e-16
5706.24 1.8992e-16
5710.31 1.9381e-16
5714.39 1.9043e-16
5718.46 1.8546e-16
5722.53 1.8739e-16
5726.61 1.9024e-16
5730.68 1.9159e-16
5734.76 1.8669e-16
5738.83 1.886e-16
5742.9 1.8769e-16
5746.98 1.7767e-16
5751.05 1.7306e-16
5755.13 1.6577e-16
5759.2 1.5631e-16
5763.28 1.4646e-16
5767.35 1.3185e-16
5771.42 1.1974e-16
5775.5 1.0481e-16
5779.57 9.2431e-17
5783.65 8.1943e-17
5787.72 6.6647e-17
5791.79 5.6559e-17
5795.87 4.6416e-17
5799.94 4.1212e-17
5804.02 3.8832e-17
5808.09 4.0939e-17
5812.17 4.2209e-17
5816.24 4.7274e-17
5820.31 4.8262e-17
5824.39 4.8733e-17
5828.46 5.5117e-17
5832.54 5.6245e-17
5836.61 5.7748e-17
5840.69 6.3519e-17
5844.76 7.1211e-17
5848.83 7.6838e-17
5852.91 8.0114e-17
5856.98 8.6314e-17
5861.06 9.9171e-17
5865.13 1.1088e-16
5869.2 1.2032e-16
5873.28 1.3461e-16
5877.35 1.4622e-16
5881.43 1.6761e-16
5885.5 1.9016e-16
5889.58 2.0349e-16
5893.65 2.1585e-16
5897.72 2.3185e-16
5901.8 2.509e-16
5905.87 2.7625e-16
5909.95 3.0893e-16
5914.02 3.2954e-16
5918.09 3.439e-16
5922.17 3.5523e-16
5926.24 3.5492e-16
5930.32 3.5229e-16
5934.39 3.5004e-16
5938.47 3.4117e-16
5942.54 3.3601e-16
5946.61 3.3432e-16
5950.69 3.3224e-16
5954.76 3.2373e-16
5958.84 3.1122e-16
5962.91 3.0379e-16
5966.99 2.973e-16
5971.06 2.9209e-16
5975.13 2.82e-16
5979.21 2.7955e-16
5983.28 2.8077e-16
5987.36 2.7822e-16
5991.43 2.7857e-16
5995.5 2.7806e-16
5999.58 2.7179e-16
6003.65 2.7151e-16
6007.73 2.761e-16
6011.8 2.7953e-16
6015.88 2.7896e-16
6019.95 2.734e-16
6024.02 2.6866e-16
6028.1 2.6831e-16
6032.17 2.6455e-16
6036.25 2.5769e-16
6040.32 2.4922e-16
6044.39 2.4276e-16
6048.47 2.3658e-16
6052.54 2.345e-16
6056.62 2.304e-16
6060.69 2.2784e-16
6064.77 2.2615e-16
6068.84 2.2004e-16
6072.91 2.1119e-16
6076.99 2.0163e-16
6081.06 1.9778e-16
6085.14 1.9768e-16
6089.21 1.9775e-16
6093.29 1.9699e-16
6097.36 1.8957e-16
6101.43 1.8577e-16
6105.51 1.8623e-16
6109.58 1.8782e-16
6113.66 1.8739e-16
6117.73 1.8867e-16
6121.8 1.8901e-16
6125.88 1.9035e-16
6129.95 1.9362e-16
6134.03 1.9068e-16
6138.1 1.9051e-16
6142.18 1.9531e-16
6146.25 1.9945e-16
6150.32 2.0387e-16
6154.4 2.0515e-16
6158.47 2.023e-16
6162.55 2.0805e-16
6166.62 2.1543e-16
6170.69 2.2189e-16
6174.77 2.2041e-16
6178.84 2.2381e-16
6182.92 2.3362e-16
6186.99 2.4356e-16
6191.07 2.4599e-16
6195.14 2.4154e-16
6199.21 2.3802e-16
6203.29 2.3337e-16
6207.36 2.3034e-16
6211.44 2.2832e-16
6215.51 2.2362e-16
6219.59 2.1994e-16
6223.66 2.1544e-16
6227.73 2.0486e-16
6231.81 2.0451e-16
6235.88 2.0382e-16
6239.96 2.0627e-16
6244.03 2.0084e-16
6248.1 1.9979e-16
6252.18 1.9962e-16
6256.25 2.0326e-16
6260.33 2.0633e-16
6264.4 2.0877e-16
6268.48 2.1383e-16
6272.55 2.2003e-16
6276.62 2.2608e-16
6280.7 2.3109e-16
6284.77 2.3887e-16
6288.85 2.4341e-16
6292.92 2.4904e-16
6296.99 2.4995e-16
6301.07 2.4612e-16
6305.14 2.4528e-16
6309.22 2.4058e-16
6313.29 2.4208e-16
6317.37 2.4782e-16
6321.44 2.5138e-16
6325.51 2.5347e-16
6329.59 2.5067e-16
6333.66 2.4983e-16
6337.74 2.5374e-16
6341.81 2.5225e-16
6345.89 2.5177e-16
6349.96 2.5436e-16
6354.03 2.5489e-16
6358.11 2.5364e-16
6362.18 2.4873e-16
6366.26 2.4756e-16
6370.33 2.4434e-16
6374.4 2.42e-16
6378.48 2.443e-16
6382.55 2.4373e-16
6386.63 2.4173e-16
6390.7 2.369e-16
6394.78 2.3087e-16
6398.85 2.2481e-16
6402.92 2.1274e-16
6407.0 1.9641e-16
6411.07 1.8289e-16
6415.15 1.6476e-16
6419.22 1.4296e-16
6423.29 1.227e-16
6427.37 9.8672e-17
6431.44 7.4832e-17
6435.52 5.934e-17
6439.59 4.7135e-17
6443.67 3.8465e-17
6447.74 3.6943e-17
6451.81 3.8764e-17
6455.89 4.0346e-17
6459.96 3.9889e-17
6464.04 4.518e-17
6468.11 5.2819e-17
6472.18 5.7888e-17
6476.26 6.0574e-17
6480.33 7.3778e-17
6484.41 8.3984e-17
6488.48 9.4407e-17
6492.56 1.0885e-16
6496.63 1.2312e-16
6500.7 1.2916e-16
6504.78 1.5599e-16
6508.85 1.9014e-16
6512.93 2.2797e-16
6517.0 2.7194e-16
