# wavelength flux
3300.0 3.758645934369962e-17
3301.0 3.758089514974382e-17
3302.0 3.75753317749298e-17
3303.0 3.756976921913039e-17
3304.0 3.756420748221836e-17
3305.0 3.755864656406653e-17
3306.0 3.755308646454772e-17
3307.0 3.7547527183534775e-17
3308.0 3.754196872090051e-17
3309.0 3.7536411076517735e-17
3310.0 3.753085425025945e-17
3311.0 3.7525298241998443e-17
3312.0 3.75197430516076e-17
3313.0 3.751418867895982e-17
3314.0 3.7508635123928e-17
3315.0 3.7503082386385047e-17
3316.0 3.749753046620383e-17
3317.0 3.74919793632574e-17
3318.0 3.748642907741865e-17
3319.0 3.7480879608560516e-17
3320.0 3.747533095655596e-17
3321.0 3.746978312127797e-17
3322.0 3.746423610259951e-17
3323.0 3.7458689900393576e-17
3324.0 3.745314451453318e-17
3325.0 3.7447599944891315e-17
3326.0 3.744205619134095e-17
3327.0 3.743651325375524e-17
3328.0 3.743097113200716e-17
3329.0 3.7425429825969774e-17
3330.0 3.741988933551612e-17
3331.0 3.741434966051922e-17
3332.0 3.740881080085227e-17
3333.0 3.7403272756388297e-17
3334.0 3.739773552700041e-17
3335.0 3.7392199112561705e-17
3336.0 3.7386663512945306e-17
3337.0 3.738112872802434e-17
3338.0 3.7375594757671946e-17
3339.0 3.7370061601761273e-17
3340.0 3.7364529260165465e-17
3341.0 3.73589977327577e-17
3342.0 3.735346701941115e-17
3343.0 3.7347937119999e-17
3344.0 3.734240803439438e-17
3345.0 3.733687976247061e-17
3346.0 3.7331352304100875e-17
3347.0 3.7325825659158306e-17
3348.0 3.732029982751627e-17
3349.0 3.731477480904794e-17
3350.0 3.730925060362658e-17
3351.0 3.730372721112544e-17
3352.0 3.7298204631417795e-17
3353.0 3.729268286437693e-17
3354.0 3.7287161909876124e-17
3355.0 3.728164176778868e-17
3356.0 3.727612243798791e-17
3357.0 3.727060392034712e-17
3358.0 3.7265086214739646e-17
3359.0 3.7259569321038824e-17
3360.0 3.725405323911801e-17
3361.0 3.724853796885046e-17
3362.0 3.7243023510109704e-17
3363.0 3.7237509862768956e-17
3364.0 3.7231997026701756e-17
3365.0 3.7226485001781415e-17
3366.0 3.7220973787881336e-17
3367.0 3.7215463384874923e-17
3368.0 3.720995379263561e-17
3369.0 3.7204445011036805e-17
3370.0 3.719893703995197e-17
3371.0 3.7193429879254527e-17
3372.0 3.7187923528817945e-17
3373.0 3.718241798851569e-17
3374.0 3.717691325822123e-17
3375.0 3.717140933780805e-17
3376.0 3.7165906227149645e-17
3377.0 3.716040392611951e-17
3378.0 3.715490243459117e-17
3379.0 3.714940175243799e-17
3380.0 3.714390187953378e-17
3381.0 3.7138402815751933e-17
3382.0 3.7132904560966e-17
3383.0 3.712740711504954e-17
3384.0 3.7121910477876105e-17
3385.0 3.711641464931928e-17
3386.0 3.7110919629252644e-17
3387.0 3.710542541754978e-17
3388.0 3.70999320140843e-17
3389.0 3.709443941872981e-17
3390.0 3.708894763135991e-17
3391.0 3.708345665184825e-17
3392.0 3.7077966480068454e-17
3393.0 3.7072477115894167e-17
3394.0 3.706698855919896e-17
3395.0 3.7061500809856654e-17
3396.0 3.7056013867740764e-17
3397.0 3.7050527732725106e-17
3398.0 3.7045042404683316e-17
3399.0 3.7039557883489075e-17
3400.0 3.7034074169016086e-17
3401.0 3.702859126113808e-17
3402.0 3.702310915972875e-17
3403.0 3.701762786466184e-17
3404.0 3.701214737581111e-17
3405.0 3.7006667693050286e-17
3406.0 3.7001188816253135e-17
3407.0 3.69957107452934e-17
3408.0 3.6990233480044876e-17
3409.0 3.6984757020381345e-17
3410.0 3.6979281366176524e-17
3411.0 3.697380651730434e-17
3412.0 3.696833247363855e-17
3413.0 3.69628592350529e-17
3414.0 3.695738680142133e-17
3415.0 3.695191517261762e-17
3416.0 3.694644434851561e-17
3417.0 3.694097432898915e-17
3418.0 3.693550511391211e-17
3419.0 3.6930036703158333e-17
3420.0 3.692456909660171e-17
3421.0 3.691910229411612e-17
3422.0 3.6913636295575456e-17
3423.0 3.6908171100853613e-17
3424.0 3.69027067098245e-17
3425.0 3.6897243122362046e-17
3426.0 3.68917803383401e-17
3427.0 3.688631835763272e-17
3428.0 3.688085718011379e-17
3429.0 3.687539680565727e-17
3430.0 3.68699372341371e-17
3431.0 3.686447846542718e-17
3432.0 3.685902049940162e-17
3433.0 3.685356333593435e-17
3434.0 3.684810697489934e-17
3435.0 3.684265141617061e-17
3436.0 3.683719665962214e-17
3437.0 3.683174270512797e-17
3438.0 3.682628955256211e-17
3439.0 3.6820837201798575e-17
3440.0 3.6815385652711443e-17
3441.0 3.680993490517473e-17
3442.0 3.6804484959062434e-17
3443.0 3.679903581424875e-17
3444.0 3.6793587470607675e-17
3445.0 3.67881399280133e-17
3446.0 3.6782693186339715e-17
3447.0 3.6777247245461006e-17
3448.0 3.67718021052512e-17
3449.0 3.6766357765584556e-17
3450.0 3.6760914226335114e-17
3451.0 3.675547148737701e-17
3452.0 3.675002954858436e-17
3453.0 3.674458840983134e-17
3454.0 3.6739148070992074e-17
3455.0 3.6733708531940713e-17
3456.0 3.6728269792551446e-17
3457.0 3.672283185269837e-17
3458.0 3.671739471225579e-17
3459.0 3.671195837109783e-17
3460.0 3.67065228290987e-17
3461.0 3.670108808613259e-17
3462.0 3.6695654142073703e-17
3463.0 3.6690220996796285e-17
3464.0 3.6684788650174533e-17
3465.0 3.66793571020827e-17
3466.0 3.6673926352394967e-17
3467.0 3.6668496400985696e-17
3468.0 3.6663067247729096e-17
3469.0 3.665763889249942e-17
3470.0 3.6652211335170943e-17
3471.0 3.664678457561795e-17
3472.0 3.6641358613714724e-17
3473.0 3.6635933449335485e-17
3474.0 3.663050908235469e-17
3475.0 3.6625085512646554e-17
3476.0 3.6619662740085407e-17
3477.0 3.6614240764545586e-17
3478.0 3.660881958590141e-17
3479.0 3.6603399204027215e-17
3480.0 3.659797961879735e-17
3481.0 3.6592560830086174e-17
3482.0 3.658714283776804e-17
3483.0 3.658172564171727e-17
3484.0 3.657630924180833e-17
3485.0 3.657089363791559e-17
3486.0 3.6565478829913393e-17
3487.0 3.656006481767617e-17
3488.0 3.6554651601078316e-17
3489.0 3.6549239179994175e-17
3490.0 3.6543827554298294e-17
3491.0 3.6538416723865035e-17
3492.0 3.653300668856883e-17
3493.0 3.6527597448284134e-17
3494.0 3.652218900288536e-17
3495.0 3.6516781352247017e-17
3496.0 3.651137449624352e-17
3497.0 3.650596843474935e-17
3498.0 3.6500563167639e-17
3499.0 3.649515869478694e-17
3500.0 3.6489755016067645e-17
3500.04 2.4137e-17
3503.81 3.0535e-17
3507.57 3.355e-17
3511.34 4.0059e-17
3515.11 4.2148e-17
3518.87 2.6529e-17
3522.64 3.0149e-17
3526.41 3.5599e-17
3530.17 3.4037e-17
3533.94 1.1217e-17
3537.71 2.9892e-17
3541.47 2.3166e-17
3545.24 1.9276e-17
3549.01 2.5838e-17
3552.77 2.7228e-17
3556.54 2.952e-17
3560.31 3.6034e-17
3564.07 4.3986e-17
3567.84 4.3468e-17
3571.61 2.6584e-17
3575.37 3.7085e-17
3579.14 2.9091e-17
3582.91 3.6542e-17
3586.67 3.6263e-17
3590.44 3.5927e-17
3594.21 3.6443e-17
3597.97 1.6489e-17
3601.74 2.1675e-17
3605.51 3.3385e-17
3609.27 2.6012e-17
3613.04 2.6651e-17
3616.81 3.8819e-17
3620.57 3.6516e-17
3624.34 2.9774e-17
3628.1 3.7112e-17
3631.87 2.432e-17
3635.64 2.0334e-17
3639.4 3.2213e-17
3643.17 3.4681e-17
3646.94 3.1122e-17
3650.7 2.406e-17
3654.47 3.4503e-17
3658.24 2.9236e-17
3662.0 2.2965e-17
3665.77 3.4202e-17
3669.54 3.4506e-17
3673.3 4.3994e-17
3677.07 3.2456e-17
3680.84 2.8994e-17
3684.6 4.0582e-17
3688.37 4.6601e-17
3692.14 3.4905e-17
3695.9 3.347e-17
3699.67 3.3511e-17
3703.44 3.461e-17
3707.2 3.3951e-17
3710.97 2.8302e-17
3714.74 2.7257e-17
3718.5 3.1758e-17
3722.27 3.5175e-17
3726.04 3.0033e-17
3729.8 2.484e-17
3733.57 3.3757e-17
3737.34 2.3874e-17
3741.1 2.5068e-17
3744.87 2.5094e-17
3748.64 3.8559e-17
3752.4 4.7958e-17
3756.17 6.0194e-17
3759.94 5.2831e-17
3763.7 2.7502e-17
3767.47 2.998e-17
3771.24 3.478e-17
3775.0 4.4297e-17
3778.77 3.5845e-17
3782.54 3.7827e-17
3786.3 3.1039e-17
3790.07 3.6824e-17
3793.84 3.8674e-17
3797.6 3.0066e-17
3801.37 3.7338e-17
3805.14 4.2239e-17
3808.9 4.3758e-17
3812.67 4.7236e-17
3816.44 4.6184e-17
3820.2 3.7728e-17
3823.97 2.9365e-17
3827.74 3.3074e-17
3831.5 3.3086e-17
3835.27 3.2449e-17
3839.04 3.8443e-17
3842.8 3.8835e-17
3846.57 3.3425e-17
3850.34 2.995e-17
3854.1 2.1998e-17
3857.87 1.4507e-17
3861.63 2.4074e-17
3865.4 3.0911e-17
3869.17 2.806e-17
3872.93 3.7918e-17
3876.7 4.5991e-17
3880.47 3.3033e-17
3884.23 3.1934e-17
3888.0 4.3536e-17
3891.77 4.2464e-17
3895.53 4.2616e-17
3899.3 3.3473e-17
3903.07 2.9482e-17
3906.83 3.215e-17
3910.6 2.6887e-17
3914.37 2.6547e-17
3918.13 3.2355e-17
3921.9 3.5182e-17
3925.67 3.922e-17
3929.43 4.1919e-17
3933.2 3.7277e-17
3936.97 4.1126e-17
3940.73 4.6411e-17
3944.5 4.1541e-17
3948.27 3.1528e-17
3952.03 2.8883e-17
3955.8 3.2371e-17
3959.57 2.8511e-17
3963.33 2.5563e-17
3967.1 2.8033e-17
3970.87 2.6798e-17
3974.63 3.1395e-17
3978.4 3.5114e-17
3982.17 4.0943e-17
3985.93 5.024e-17
3989.7 4.3646e-17
3993.47 3.2742e-17
3997.23 2.6636e-17
4001.0 3.7987e-17
4004.77 3.7711e-17
4008.53 4.8498e-17
4012.3 4.8873e-17
4016.07 3.928e-17
4019.83 3.6159e-17
4023.6 4.379e-17
4027.37 5.0729e-17
4031.13 5.0387e-17
4034.9 4.4542e-17
4038.67 4.0587e-17
4042.43 3.2583e-17
4046.2 4.3226e-17
4049.97 5.5743e-17
4053.73 5.2082e-17
4057.5 4.1146e-17
4061.27 3.9281e-17
4065.03 5.0931e-17
4068.8 3.9706e-17
4072.57 4.0366e-17
4076.33 3.0305e-17
4080.1 3.1345e-17
4083.87 4.0013e-17
4087.63 3.5261e-17
4091.4 4.1777e-17
4095.16 4.6248e-17
4098.93 4.0315e-17
4102.7 2.9424e-17
4106.46 2.9644e-17
4110.23 3.5677e-17
4114.0 2.9129e-17
4117.76 2.06e-17
4121.53 2.9088e-17
4125.3 3.6212e-17
4129.06 4.0709e-17
4132.83 3.6734e-17
4136.6 3.6675e-17
4140.36 3.731e-17
4144.13 3.9605e-17
4147.9 2.9901e-17
4151.66 3.4393e-17
4155.43 4.402e-17
4159.2 5.0707e-17
4162.96 4.245e-17
4166.73 3.6118e-17
4170.5 4.3535e-17
4174.26 4.1857e-17
4178.03 3.9566e-17
4181.8 3.8667e-17
4185.56 3.5994e-17
4189.33 3.3979e-17
4193.1 3.5484e-17
4196.86 3.826e-17
4200.63 3.787e-17
4204.4 3.6996e-17
4208.16 4.0562e-17
4211.93 2.8129e-17
4215.7 3.3824e-17
4219.46 3.2025e-17
4223.23 3.4525e-17
4227.0 2.5702e-17
4230.76 2.4171e-17
4234.53 3.2956e-17
4238.3 3.457e-17
4242.06 3.9009e-17
4245.83 3.377e-17
4249.6 2.5505e-17
4253.36 4.0021e-17
4257.13 3.3573e-17
4260.9 3.5451e-17
4264.66 2.8382e-17
4268.43 2.745e-17
4272.2 1.9681e-17
4275.96 2.1216e-17
4279.73 2.9673e-17
4283.5 3.4847e-17
4287.26 2.7959e-17
4291.03 4.0481e-17
4294.8 4.0912e-17
4298.56 3.5099e-17
4302.33 2.9074e-17
4306.1 2.9136e-17
4309.86 2.9418e-17
4313.63 3.1704e-17
4317.4 3.2857e-17
4321.16 3.5904e-17
4324.93 3.2321e-17
4328.7 3.5125e-17
4332.46 3.1948e-17
4336.23 3.7673e-17
4339.99 2.4103e-17
4343.76 2.9118e-17
4347.53 3.8546e-17
4351.29 3.6271e-17
4355.06 3.5552e-17
4358.83 3.7487e-17
4362.59 4.265e-17
4366.36 4.089e-17
4370.13 3.6595e-17
4373.89 3.2601e-17
4377.66 2.8305e-17
4381.43 2.8672e-17
4385.19 3.0741e-17
4388.96 3.3326e-17
4392.73 3.3997e-17
4396.49 3.4606e-17
4400.26 3.392e-17
4404.03 3.6742e-17
4407.79 3.8127e-17
4411.56 3.6415e-17
4415.33 3.4036e-17
4419.09 3.6292e-17
4422.86 3.7073e-17
4426.63 3.8926e-17
4430.39 3.4566e-17
4434.16 3.3569e-17
4437.93 3.5699e-17
4441.69 2.5708e-17
4445.46 2.9739e-17
4449.23 3.5031e-17
4452.99 3.3635e-17
4456.76 3.4554e-17
4460.53 4.196e-17
4464.29 4.6301e-17
4468.06 4.7094e-17
4471.83 3.8856e-17
4475.59 3.1482e-17
4479.36 3.0024e-17
4483.13 3.2929e-17
4486.89 3.5878e-17
4490.66 3.8255e-17
4494.43 3.7973e-17
4498.19 3.7884e-17
4501.96 3.8558e-17
4505.73 3.6329e-17
4509.49 4.594e-17
4513.26 4.2169e-17
4517.03 3.9799e-17
4520.79 3.7856e-17
4524.56 3.4368e-17
4528.33 3.5614e-17
4532.09 2.8857e-17
4535.86 3.2678e-17
4539.63 3.4248e-17
4543.39 3.4997e-17
4547.16 3.1274e-17
4550.93 3.1226e-17
4554.69 2.9481e-17
4558.46 3.1006e-17
4562.23 3.2343e-17
4565.99 3.4411e-17
4569.76 3.8172e-17
4573.52 3.9467e-17
4577.29 3.9855e-17
4581.06 2.9109e-17
4584.82 2.8399e-17
4588.59 3.3904e-17
4592.36 3.6532e-17
4596.12 3.7693e-17
4599.89 3.4522e-17
4603.66 2.9257e-17
4607.42 3.0818e-17
4611.19 3.616e-17
4614.96 3.9303e-17
4618.72 3.9733e-17
4622.49 3.4716e-17
4626.26 3.7165e-17
4630.02 3.6213e-17
4633.79 2.8202e-17
4637.56 3.4552e-17
4641.32 3.4396e-17
4645.09 3.4074e-17
4648.86 3.3862e-17
4652.62 3.001e-17
4656.39 3.3323e-17
4660.16 2.6745e-17
4663.92 2.4068e-17
4667.69 3.0566e-17
4671.46 3.0365e-17
4675.22 3.5704e-17
4678.99 3.8941e-17
4682.76 3.8497e-17
4686.52 2.8792e-17
4690.29 3.4335e-17
4694.06 2.5086e-17
4697.82 2.9891e-17
4701.59 3.5052e-17
4705.36 3.2731e-17
4709.12 3.2012e-17
4712.89 2.7865e-17
4716.66 2.9522e-17
4720.42 3.8578e-17
4724.19 2.8044e-17
4727.96 2.7441e-17
4731.72 3.6441e-17
4735.49 3.1643e-17
4739.26 3.165e-17
4743.02 3.3328e-17
4746.79 3.7648e-17
4750.56 3.6618e-17
4754.32 3.6077e-17
4758.09 3.2811e-17
4761.86 3.1387e-17
4765.62 2.4775e-17
4769.39 2.6805e-17
4773.16 3.3207e-17
4776.92 3.7707e-17
4780.69 3.1274e-17
4784.46 2.7618e-17
4788.22 2.9789e-17
4791.99 2.7825e-17
4795.76 2.6082e-17
4799.52 2.5109e-17
4803.29 2.9038e-17
4807.06 3.3383e-17
4810.82 3.3107e-17
4814.59 2.1361e-17
4818.35 2.4542e-17
4822.12 3.2398e-17
4825.89 2.4341e-17
4829.65 1.9245e-17
4833.42 2.4779e-17
4837.19 2.2412e-17
4840.95 2.2014e-17
4844.72 2.5694e-17
4848.49 2.6892e-17
4852.25 3.1961e-17
4856.02 3.3436e-17
4859.79 2.8061e-17
4863.55 2.3222e-17
4867.32 2.2121e-17
4871.09 2.4831e-17
4874.85 2.2768e-17
4878.62 2.2472e-17
4882.39 2.8575e-17
4886.15 3.3521e-17
4889.92 3.1367e-17
4893.69 4.8473e-17
4897.45 5.3071e-17
4901.22 3.9606e-17
4904.99 2.8213e-17
4908.75 2.8848e-17
4912.52 2.5279e-17
4916.29 2.6666e-17
4920.05 3.5323e-17
4923.82 3.0605e-17
4927.59 3.6175e-17
4931.35 2.7964e-17
4935.12 2.801e-17
4938.89 3.1615e-17
4942.65 2.9974e-17
4946.42 3.1217e-17
4950.19 2.7244e-17
4953.95 2.559e-17
4957.72 2.7047e-17
4961.49 2.8706e-17
4965.25 3.2519e-17
4969.02 2.7403e-17
4972.79 2.8554e-17
4976.55 3.1441e-17
4980.32 3.3784e-17
4984.09 3.1937e-17
4987.85 2.6974e-17
4991.62 2.8417e-17
4995.39 2.6888e-17
4999.15 2.8017e-17
5002.92 2.3531e-17
5006.69 2.1492e-17
5010.45 1.9575e-17
5014.22 1.7448e-17
5017.99 2.13e-17
5021.75 2.3768e-17
5025.52 2.1209e-17
5029.29 2.7071e-17
5033.05 2.4712e-17
5036.82 3.0924e-17
5040.59 4.493e-17
5044.35 4.5746e-17
5048.12 3.8611e-17
5051.88 3.0257e-17
5055.65 2.9984e-17
5059.42 3.6236e-17
5063.18 3.3144e-17
5066.95 2.9379e-17
5070.72 2.829e-17
5074.48 3.0892e-17
5078.25 3.1953e-17
5082.02 2.489e-17
5085.78 3.0422e-17
5089.55 2.9323e-17
5093.32 2.6692e-17
5097.08 3.1412e-17
5100.85 2.9651e-17
5104.62 2.5887e-17
5108.38 3.6519e-17
5112.15 2.725e-17
5115.92 2.5435e-17
5119.68 1.9611e-17
5123.45 2.0019e-17
5127.22 2.6345e-17
5130.98 2.6283e-17
5134.75 2.1307e-17
5138.52 2.3993e-17
5142.28 2.4446e-17
5146.05 2.211e-17
5149.82 2.8571e-17
5153.58 2.7043e-17
5157.35 2.7403e-17
5161.12 3.2779e-17
5164.88 3.8542e-17
5168.65 3.3199e-17
5172.42 3.1577e-17
5176.18 3.0637e-17
5179.95 3.0332e-17
5183.72 3.2032e-17
5187.48 2.964e-17
5191.25 3.1703e-17
5195.02 3.8628e-17
5198.78 4.1233e-17
5202.55 3.0879e-17
5206.32 2.6668e-17
5210.08 2.7031e-17
5213.85 3.0348e-17
5217.62 2.2144e-17
5221.38 2.8659e-17
5225.15 2.7565e-17
5228.92 2.3276e-17
5232.68 2.721e-17
5236.45 3.3006e-17
5240.22 2.9947e-17
5243.98 2.7441e-17
5247.75 2.4216e-17
5251.52 2.5388e-17
5255.28 2.76e-17
5259.05 2.5423e-17
5262.82 2.7556e-17
5266.58 2.5353e-17
5270.35 3.0065e-17
5274.12 2.5479e-17
5277.88 1.9304e-17
5281.65 2.7087e-17
5285.42 2.7523e-17
5289.18 3.186e-17
5292.95 3.8819e-17
5296.71 3.3006e-17
5300.48 3.3621e-17
5304.25 2.6962e-17
5308.01 2.5498e-17
5311.78 2.3772e-17
5315.55 2.5762e-17
5319.31 2.9532e-17
5323.08 2.9063e-17
5326.85 2.7684e-17
5330.61 2.6954e-17
5334.38 2.7848e-17
5338.15 2.7127e-17
5341.91 2.8355e-17
5345.68 3.0775e-17
5349.45 2.4564e-17
5353.21 1.8278e-17
5356.98 2.6124e-17
5360.75 2.1498e-17
5364.51 2.0688e-17
5368.28 2.7777e-17
5372.05 2.7398e-17
5375.81 2.5341e-17
5379.58 2.4578e-17
5383.35 2.5409e-17
5387.11 2.3581e-17
5390.88 2.2738e-17
5394.65 2.2559e-17
5398.41 2.1039e-17
5402.18 1.8146e-17
5405.95 2.5337e-17
5409.71 2.5391e-17
5413.48 2.0996e-17
5417.25 2.123e-17
5421.01 2.7784e-17
5424.78 3.3875e-17
5428.55 3.0289e-17
5432.31 2.3567e-17
5436.08 2.5423e-17
5439.85 2.4988e-17
5443.61 1.5025e-17
5447.38 1.6847e-17
5451.15 2.2564e-17
5454.91 2.6185e-17
5458.68 2.2459e-17
5462.45 1.9589e-17
5466.21 1.9526e-17
5469.98 2.4542e-17
5473.75 1.7101e-17
5477.51 1.6929e-17
5481.28 1.7992e-17
5485.05 2.0943e-17
5488.81 1.7274e-17
5492.58 1.6661e-17
5496.35 2.0849e-17
5500.11 1.6499e-17
5503.88 1.6677e-17
5507.65 1.9981e-17
5511.41 2.3421e-17
5515.18 1.8453e-17
5518.95 2.3265e-17
5522.71 2.5726e-17
5526.48 2.5585e-17
5530.24 3.1049e-17
5534.01 2.3379e-17
5537.78 2.274e-17
5541.54 2.6146e-17
5545.31 1.9255e-17
5549.08 2.6781e-17
5552.84 2.1441e-17
5556.61 1.9428e-17
5560.38 2.0969e-17
5564.14 1.5274e-17
5567.91 -5.8072e-18
5571.68 4.0402e-18
5575.44 9.5676e-17
5579.21 1.1756e-16
5582.98 2.3895e-17
5586.74 -4.3262e-17
5590.51 -3.1366e-18
5594.28 1.9026e-17
5598.04 2.083e-17
5601.81 2.5313e-17
5605.58 3.1603e-17
5609.34 3.167e-17
5613.11 2.8848e-17
5616.88 2.2722e-17
5620.64 2.0137e-17
5624.41 2.086e-17
5628.18 2.2953e-17
5631.94 2.397e-17
5635.71 2.2525e-17
5639.48 2.3099e-17
5643.24 2.8905e-17
5647.01 2.6664e-17
5650.78 2.3095e-17
5654.54 2.18e-17
5658.31 2.1296e-17
5662.08 2.3455e-17
5665.84 2.0486e-17
5669.61 1.7232e-17
5673.38 2.1582e-17
5677.14 2.0284e-17
5680.91 2.195e-17
5684.68 2.0254e-17
5688.44 1.6606e-17
5692.21 2.0609e-17
5695.98 2.3422e-17
5699.74 1.9468e-17
5703.51 1.6841e-17
5707.28 1.9128e-17
5711.04 2.4145e-17
5714.81 1.6944e-17
5718.58 1.0114e-17
5722.34 8.3811e-18
5726.11 3.4984e-18
5729.88 -4.1505e-19
5733.64 1.2619e-17
5737.41 1.7853e-17
5741.18 2.1591e-17
5744.94 2.0813e-17
5748.71 2.0373e-17
5752.48 2.1887e-17
5756.24 1.8876e-17
5760.01 2.1731e-17
5763.77 2.447e-17
5767.54 1.9313e-17
5771.31 1.9516e-17
5775.07 2.3529e-17
5778.84 1.6106e-17
5782.61 9.8385e-18
5786.37 1.5248e-17
5790.14 1.4804e-17
5793.91 1.5216e-17
5797.67 1.4255e-17
5801.44 1.0123e-17
5805.21 1.1988e-17
5808.97 1.5183e-17
5812.74 1.6454e-17
5816.51 1.6213e-17
5820.27 1.744e-17
5824.04 1.4581e-17
5827.81 1.7439e-17
5831.57 1.7123e-17
5835.34 2.3167e-17
5839.11 2.2446e-17
5842.87 2.431e-17
5846.64 2.0015e-17
5850.41 1.364e-17
5854.17 1.3064e-17
5857.94 1.8206e-17
5861.71 1.2742e-17
5865.47 1.2421e-17
5869.24 1.7874e-17
5873.01 2.5332e-17
5876.77 2.271e-17
5880.54 1.8281e-17
5884.31 1.9079e-17
5888.07 2.453e-17
5891.84 2.1494e-17
5895.61 1.7854e-17
5899.37 1.5557e-17
5903.14 1.8162e-17
5906.91 1.9983e-17
5910.67 2.6258e-17
5914.44 2.8863e-17
5918.21 3.2465e-17
5921.97 2.6075e-17
5925.74 2.3972e-17
5929.51 2.4027e-17
5933.27 2.4353e-17
5937.04 2.7397e-17
5940.81 2.0669e-17
5944.57 1.7003e-17
5948.34 1.7822e-17
5952.11 2.3459e-17
5955.87 2.3431e-17
5959.64 2.1397e-17
5963.41 2.4197e-17
5967.17 2.5716e-17
5970.94 2.5657e-17
5974.71 2.3577e-17
5978.47 2.5337e-17
5982.24 2.1046e-17
5986.01 1.3057e-17
5989.77 1.0145e-17
5993.54 1.0511e-17
5997.31 1.4898e-17
6001.07 1.968e-17
6004.84 2.5349e-17
6008.6 1.9296e-17
6012.37 2.3563e-17
6016.14 2.5398e-17
6019.9 2.3311e-17
6023.67 1.8484e-17
6027.44 1.5854e-17
6031.2 1.5869e-17
6034.97 1.1488e-17
6038.74 1.3731e-17
6042.5 1.2492e-17
6046.27 1.2105e-17
6050.04 9.823e-18
6053.8 1.6419e-17
6057.57 1.4877e-17
6061.34 1.3965e-17
6065.1 1.723e-17
6068.87 1.35e-17
6072.64 1.3331e-17
6076.4 1.0221e-17
6080.17 2.0611e-17
6083.94 1.9645e-17
6087.7 1.9781e-17
6091.47 1.6589e-17
6095.24 1.7282e-17
6099.0 1.9441e-17
6102.77 1.5915e-17
6106.54 1.376e-17
6110.3 1.4691e-17
6114.07 1.6251e-17
6117.84 1.5949e-17
6121.6 1.323e-17
6125.37 1.7338e-17
6129.14 1.7625e-17
6132.9 1.7752e-17
6136.67 2.4003e-17
6140.44 1.9255e-17
6144.2 1.795e-17
6147.97 1.829e-17
6151.74 1.524e-17
6155.5 1.6832e-17
6159.27 2.0001e-17
6163.04 1.9764e-17
6166.8 2.053e-17
6170.57 1.7097e-17
6174.34 1.4383e-17
6178.1 1.0343e-17
6181.87 9.7638e-18
6185.64 1.9444e-17
6189.4 2.2581e-17
6193.17 2.2719e-17
6196.94 1.6601e-17
6200.7 1.555e-17
6204.47 1.8662e-17
6208.24 2.1774e-17
6212.0 2.0101e-17
6215.77 2.0673e-17
6219.54 1.828e-17
6223.3 1.5392e-17
6227.07 1.7355e-17
6230.84 2.0607e-17
6234.6 2.1393e-17
6238.37 2.307e-17
6242.13 1.6999e-17
6245.9 1.3662e-17
6249.67 1.8459e-17
6253.43 2.0027e-17
6257.2 2.4197e-17
6260.97 2.2486e-17
6264.73 1.4786e-17
6268.5 1.7014e-17
6272.27 1.7806e-17
6276.03 2.2146e-17
6279.8 2.0054e-17
6283.57 2.1359e-17
6287.33 1.9745e-17
6291.1 1.6853e-17
6294.87 1.7912e-17
6298.63 4.2375e-17
6302.4 4.555e-17
6306.17 2.9622e-17
6309.93 1.835e-17
6313.7 2.6373e-17
6317.47 3.2632e-17
6321.23 3.5953e-17
