# wavelength flux
3300.0 1.2723703377238795e-15
3301.0 1.2725868405644038e-15
3302.0 1.2728022696588242e-15
3303.0 1.2730166258606574e-15
3304.0 1.2732299100272226e-15
3305.0 1.2734421230196241e-15
3306.0 1.2736532657027346e-15
3307.0 1.2738633389451772e-15
3308.0 1.27407234361931e-15
3309.0 1.2742802806012083e-15
3310.0 1.2744871507706471e-15
3311.0 1.274692955011086e-15
3312.0 1.2748976942096504e-15
3313.0 1.275101369257115e-15
3314.0 1.2753039810478888e-15
3315.0 1.275505530479995e-15
3316.0 1.2757060184550559e-15
3317.0 1.2759054458782764e-15
3318.0 1.276103813658426e-15
3319.0 1.2763011227078227e-15
3320.0 1.2764973739423156e-15
3321.0 1.2766925682812685e-15
3322.0 1.2768867066475418e-15
3323.0 1.2770797899674781e-15
3324.0 1.277271819170882e-15
3325.0 1.2774627951910062e-15
3326.0 1.2776527189645337e-15
3327.0 1.2778415914315593e-15
3328.0 1.2780294135355759e-15
3329.0 1.2782161862234544e-15
3330.0 1.2784019104454296e-15
3331.0 1.2785865871550814e-15
3332.0 1.2787702173093191e-15
3333.0 1.2789528018683649e-15
3334.0 1.2791343417957351e-15
3335.0 1.2793148380582262e-15
3336.0 1.2794942916258952e-15
3337.0 1.2796727034720459e-15
3338.0 1.2798500745732092e-15
3339.0 1.2800264059091285e-15
3340.0 1.2802016984627417e-15
3341.0 1.2803759532201652e-15
3342.0 1.280549171170677e-15
3343.0 1.2807213533066996e-15
3344.0 1.280892500623784e-15
3345.0 1.2810626141205925e-15
3346.0 1.2812316947988823e-15
3347.0 1.2813997436634893e-15
3348.0 1.2815667617223098e-15
3349.0 1.281732749986286e-15
3350.0 1.281897709469388e-15
3351.0 1.2820616411885977e-15
3352.0 1.2822245461638922e-15
3353.0 1.2823864254182274e-15
3354.0 1.2825472799775206e-15
3355.0 1.2827071108706352e-15
3356.0 1.2828659191293632e-15
3357.0 1.2830237057884093e-15
3358.0 1.2831804718853742e-15
3359.0 1.2833362184607377e-15
3360.0 1.2834909465578424e-15
3361.0 1.2836446572228787e-15
3362.0 1.2837973515048665e-15
3363.0 1.2839490304556388e-15
3364.0 1.2840996951298267e-15
3365.0 1.2842493465848421e-15
3366.0 1.2843979858808613e-15
3367.0 1.2845456140808092e-15
3368.0 1.2846922322503425e-15
3369.0 1.2848378414578333e-15
3370.0 1.2849824427743532e-15
3371.0 1.2851260372736566e-15
3372.0 1.285268626032166e-15
3373.0 1.2854102101289522e-15
3374.0 1.2855507906457223e-15
3375.0 1.2856903686668007e-15
3376.0 1.2858289452791142e-15
3377.0 1.2859665215721746e-15
3378.0 1.2861030986380645e-15
3379.0 1.2862386775714195e-15
3380.0 1.2863732594694124e-15
3381.0 1.2865068454317375e-15
3382.0 1.2866394365605953e-15
3383.0 1.2867710339606744e-15
3384.0 1.2869016387391376e-15
3385.0 1.2870312520056042e-15
3386.0 1.2871598748721355e-15
3387.0 1.2872875084532178e-15
3388.0 1.2874141538657472e-15
3389.0 1.287539812229013e-15
3390.0 1.2876644846646821e-15
3391.0 1.2877881722967832e-15
3392.0 1.2879108762516916e-15
3393.0 1.288032597658112e-15
3394.0 1.2881533376470634e-15
3395.0 1.2882730973518643e-15
3396.0 1.288391877908115e-15
3397.0 1.2885096804536833e-15
3398.0 1.2886265061286888e-15
3399.0 1.2887423560754861e-15
3400.0 1.2888572314386503e-15
3401.0 1.288971133364961e-15
3402.0 1.289084063003387e-15
3403.0 1.2891960215050695e-15
3404.0 1.2893070100233079e-15
3405.0 1.2894170297135446e-15
3406.0 1.289526081733347e-15
3407.0 1.2896341672423954e-15
3408.0 1.2897412874024645e-15
3409.0 1.2898474433774108e-15
3410.0 1.2899526363331543e-15
3411.0 1.2900568674376663e-15
3412.0 1.29016013786095e-15
3413.0 1.2902624487750301e-15
3414.0 1.290363801353933e-15
3415.0 1.2904641967736746e-15
3416.0 1.290563636212243e-15
3417.0 1.2906621208495856e-15
3418.0 1.2907596518675909e-15
3419.0 1.290856230450076e-15
3420.0 1.2909518577827702e-15
3421.0 1.2910465350533002e-15
3422.0 1.2911402634511752e-15
3423.0 1.2912330441677712e-15
3424.0 1.291324878396316e-15
3425.0 1.2914157673318762e-15
3426.0 1.291505712171339e-15
3427.0 1.2915947141133997e-15
3428.0 1.2916827743585464e-15
3429.0 1.291769894109044e-15
3430.0 1.2918560745689198e-15
3431.0 1.2919413169439509e-15
3432.0 1.292025622441645e-15
3433.0 1.2921089922712303e-15
3434.0 1.2921914276436373e-15
3435.0 1.2922729297714856e-15
3436.0 1.2923534998690697e-15
3437.0 1.292433139152343e-15
3438.0 1.2925118488389045e-15
3439.0 1.292589630147983e-15
3440.0 1.292666484300424e-15
3441.0 1.2927424125186735e-15
3442.0 1.2928174160267654e-15
3443.0 1.292891496050305e-15
3444.0 1.2929646538164564e-15
3445.0 1.2930368905539267e-15
3446.0 1.2931082074929529e-15
3447.0 1.2931786058652864e-15
3448.0 1.2932480869041795e-15
3449.0 1.2933166518443707e-15
3450.0 1.2933843019220708e-15
3451.0 1.2934510383749489e-15
3452.0 1.2935168624421167e-15
3453.0 1.2935817753641166e-15
3454.0 1.293645778382906e-15
3455.0 1.2937088727418443e-15
3456.0 1.2937710596856773e-15
3457.0 1.2938323404605251e-15
3458.0 1.293892716313867e-15
3459.0 1.2939521884945273e-15
3460.0 1.294010758252662e-15
3461.0 1.2940684268397455e-15
3462.0 1.294125195508555e-15
3463.0 1.2941810655131586e-15
3464.0 1.2942360381088995e-15
3465.0 1.2942901145523845e-15
3466.0 1.2943432961014688e-15
3467.0 1.2943955840152423e-15
3468.0 1.2944469795540168e-15
3469.0 1.2944974839793117e-15
3470.0 1.2945470985538407e-15
3471.0 1.2945958245414988e-15
3472.0 1.2946436632073463e-15
3473.0 1.2946906158176e-15
3474.0 1.2947366836396143e-15
3475.0 1.2947818679418721e-15
3476.0 1.2948261699939696e-15
3477.0 1.2948695910666022e-15
3478.0 1.2949121324315535e-15
3479.0 1.294953795361679e-15
3480.0 1.2949945811308963e-15
3481.0 1.2950344910141693e-15
3482.0 1.2950735262874955e-15
3483.0 1.2951116882278937e-15
3484.0 1.2951489781133904e-15
3485.0 1.2951853972230066e-15
3486.0 1.2952209468367445e-15
3487.0 1.2952556282355764e-15
3488.0 1.2952894427014286e-15
3489.0 1.2953223915171715e-15
3490.0 1.295354475966604e-15
3491.0 1.2953856973344433e-15
3492.0 1.29541605690631e-15
3493.0 1.2954455559687164e-15
3494.0 1.2954741958090541e-15
3495.0 1.2955019777155792e-15
3496.0 1.2955289029774024e-15
3497.0 1.2955549728844746e-15
3498.0 1.2955801887275749e-15
3499.0 1.2956045517982971e-15
3500.0 1.2956280633890394e-15
3500.78 1.3826e-15
3503.73 1.41e-15
3506.67 1.3921e-15
3509.61 1.3378e-15
3512.55 1.4385e-15
3515.49 1.363e-15
3518.43 1.2793e-15
3521.37 1.2855e-15
3524.31 1.4662e-15
3527.25 1.2562e-15
3530.2 1.2276e-15
3533.14 1.3236e-15
3536.08 1.2709e-15
3539.02 1.374e-15
3541.96 1.2866e-15
3544.9 1.3604e-15
3547.84 1.3198e-15
3550.78 1.4069e-15
3553.72 1.4132e-15
3556.67 1.2788e-15
3559.61 1.2078e-15
3562.55 1.3506e-15
3565.49 1.3488e-15
3568.43 1.3534e-15
3571.37 1.4201e-15
3574.31 1.3136e-15
3577.25 1.3984e-15
3580.19 1.3657e-15
3583.14 1.4301e-15
3586.08 1.1753e-15
3589.02 1.3051e-15
3591.96 1.2825e-15
3594.9 1.3906e-15
3597.84 1.2833e-15
3600.78 1.2946e-15
3603.72 1.1716e-15
3606.66 1.0633e-15
3609.61 1.0873e-15
3612.55 1.1969e-15
3615.49 1.2075e-15
3618.43 1.282e-15
3621.37 1.1829e-15
3624.31 1.1845e-15
3627.25 1.1381e-15
3630.19 1.1244e-15
3633.13 1.1635e-15
3636.08 1.1626e-15
3639.02 1.2173e-15
3641.96 1.1858e-15
3644.9 1.1316e-15
3647.84 1.1223e-15
3650.78 1.2346e-15
3653.72 1.2519e-15
3656.66 1.2283e-15
3659.6 1.2165e-15
3662.55 1.2832e-15
3665.49 1.2457e-15
3668.43 1.4282e-15
3671.37 1.3849e-15
3674.31 1.301e-15
3677.25 1.3507e-15
3680.19 1.38e-15
3683.13 1.429e-15
3686.07 1.3292e-15
3689.02 1.3925e-15
3691.96 1.3749e-15
3694.9 1.3153e-15
3697.84 1.4071e-15
3700.78 1.3469e-15
3703.72 1.2975e-15
3706.66 1.2518e-15
3709.6 1.2684e-15
3712.54 1.3305e-15
3715.49 1.3275e-15
3718.43 1.3523e-15
3721.37 1.3118e-15
3724.31 1.2883e-15
3727.25 1.2548e-15
3730.19 1.2557e-15
3733.13 1.3235e-15
3736.07 1.3161e-15
3739.01 1.258e-15
3741.96 1.2311e-15
3744.9 1.2183e-15
3747.84 1.2492e-15
3750.78 1.2422e-15
3753.72 1.2349e-15
3756.66 1.197e-15
3759.6 1.1444e-15
3762.54 1.1772e-15
3765.48 1.2759e-15
3768.43 1.2833e-15
3771.37 1.317e-15
3774.31 1.3461e-15
3777.25 1.2648e-15
3780.19 1.3405e-15
3783.13 1.3454e-15
3786.07 1.2451e-15
3789.01 1.2754e-15
3791.95 1.2289e-15
3794.9 1.2561e-15
3797.84 1.2324e-15
3800.78 1.2218e-15
3803.72 1.2095e-15
3806.66 1.2848e-15
3809.6 1.2506e-15
3812.54 1.2615e-15
3815.48 1.2798e-15
3818.42 1.3153e-15
3821.37 1.3048e-15
3824.31 1.3005e-15
3827.25 1.4078e-15
3830.19 1.3557e-15
3833.13 1.3252e-15
3836.07 1.2719e-15
3839.01 1.292e-15
3841.95 1.2961e-15
3844.89 1.3021e-15
3847.84 1.2049e-15
3850.78 1.268e-15
3853.72 1.3139e-15
3856.66 1.2428e-15
3859.6 1.2387e-15
3862.54 1.2204e-15
3865.48 1.1203e-15
3868.42 1.1667e-15
3871.36 1.1506e-15
3874.31 1.1421e-15
3877.25 1.2524e-15
3880.19 1.2109e-15
3883.13 1.2319e-15
3886.07 1.2472e-15
3889.01 1.2783e-15
3891.95 1.2784e-15
3894.89 1.3173e-15
3897.83 1.291e-15
3900.78 1.3038e-15
3903.72 1.2709e-15
3906.66 1.2591e-15
3909.6 1.242e-15
3912.54 1.2e-15
3915.48 1.2173e-15
3918.42 1.2865e-15
3921.36 1.2306e-15
3924.3 1.2487e-15
3927.25 1.2129e-15
3930.19 1.1679e-15
3933.13 1.1193e-15
3936.07 1.0587e-15
3939.01 1.0411e-15
3941.95 1.1221e-15
3944.89 1.2097e-15
3947.83 1.1549e-15
3950.77 1.2358e-15
3953.72 1.2286e-15
3956.66 1.2653e-15
3959.6 1.3632e-15
3962.54 1.3097e-15
3965.48 1.2237e-15
3968.42 1.2413e-15
3971.36 1.2469e-15
3974.3 1.2173e-15
3977.24 1.1978e-15
3980.19 1.1671e-15
3983.13 1.1941e-15
3986.07 1.1966e-15
3989.01 1.2106e-15
3991.95 1.2446e-15
3994.89 1.1759e-15
3997.83 1.1495e-15
4000.77 1.1993e-15
4003.71 1.1118e-15
4006.66 1.1429e-15
4009.6 1.1258e-15
4012.54 1.1521e-15
4015.48 1.1441e-15
4018.42 1.1439e-15
4021.36 1.1629e-15
4024.3 1.1754e-15
4027.24 1.2009e-15
4030.18 1.1966e-15
4033.13 1.2195e-15
4036.07 1.2051e-15
4039.01 1.1995e-15
4041.95 1.2011e-15
4044.89 1.1852e-15
4047.83 1.2388e-15
4050.77 1.2109e-15
4053.71 1.2059e-15
4056.65 1.2095e-15
4059.6 1.1737e-15
4062.54 1.1488e-15
4065.48 1.1363e-15
4068.42 1.1253e-15
4071.36 1.093e-15
4074.3 1.1264e-15
4077.24 1.0826e-15
4080.18 1.0714e-15
4083.12 1.0889e-15
4086.07 1.1268e-15
4089.01 1.2048e-15
4091.95 1.2342e-15
4094.89 1.2958e-15
4097.83 1.2948e-15
4100.77 1.2758e-15
4103.71 1.2513e-15
4106.65 1.2352e-15
4109.59 1.2978e-15
4112.54 1.2353e-15
4115.48 1.2395e-15
4118.42 1.2243e-15
4121.36 1.2597e-15
4124.3 1.2394e-15
4127.24 1.2745e-15
4130.18 1.2336e-15
4133.12 1.1703e-15
4136.06 1.2255e-15
4139.01 1.1886e-15
4141.95 1.2232e-15
4144.89 1.2073e-15
4147.83 1.2351e-15
4150.77 1.2272e-15
4153.71 1.1867e-15
4156.65 1.2244e-15
4159.59 1.1718e-15
4162.53 1.1327e-15
4165.48 1.1738e-15
4168.42 1.1522e-15
4171.36 1.1818e-15
4174.3 1.1698e-15
4177.24 1.1217e-15
4180.18 1.1338e-15
4183.12 1.1417e-15
4186.06 1.1674e-15
4189.0 1.2063e-15
4191.95 1.1747e-15
4194.89 1.2371e-15
4197.83 1.2003e-15
4200.77 1.2209e-15
4203.71 1.2133e-15
4206.65 1.2369e-15
4209.59 1.2769e-15
4212.53 1.2858e-15
4215.47 1.2519e-15
4218.42 1.2844e-15
4221.36 1.3249e-15
4224.3 1.2978e-15
4227.24 1.2745e-15
4230.18 1.2955e-15
4233.12 1.2894e-15
4236.06 1.2674e-15
4239.0 1.273e-15
4241.94 1.3428e-15
4244.89 1.2625e-15
4247.83 1.226e-15
4250.77 1.2871e-15
4253.71 1.2676e-15
4256.65 1.2728e-15
4259.59 1.2908e-15
4262.53 1.224e-15
4265.47 1.1854e-15
4268.41 1.1689e-15
4271.36 1.2096e-15
4274.3 1.1908e-15
4277.24 1.1906e-15
4280.18 1.2215e-15
4283.12 1.1947e-15
4286.06 1.1664e-15
4289.0 1.1207e-15
4291.94 1.1197e-15
4294.89 1.1664e-15
4297.83 1.1341e-15
4300.77 1.1346e-15
4303.71 1.1484e-15
4306.65 1.1118e-15
4309.59 1.1153e-15
4312.53 1.1058e-15
4315.47 1.1394e-15
4318.41 1.1519e-15
4321.36 1.178e-15
4324.3 1.2089e-15
4327.24 1.1625e-15
4330.18 1.1817e-15
4333.12 1.2174e-15
4336.06 1.1676e-15
4339.0 1.2256e-15
4341.94 1.1881e-15
4344.88 1.1649e-15
4347.83 1.186e-15
4350.77 1.1615e-15
4353.71 1.169e-15
4356.65 1.1648e-15
4359.59 1.1374e-15
4362.53 1.125e-15
4365.47 1.1214e-15
4368.41 1.1142e-15
4371.35 1.1119e-15
4374.3 1.1222e-15
4377.24 1.1175e-15
4380.18 1.1517e-15
4383.12 1.1301e-15
4386.06 1.1042e-15
4389.0 1.1081e-15
4391.94 1.0907e-15
4394.88 1.1224e-15
4397.82 1.076e-15
4400.77 1.0867e-15
4403.71 1.1177e-15
4406.65 1.1139e-15
4409.59 1.1656e-15
4412.53 1.1516e-15
4415.47 1.1174e-15
4418.41 1.0907e-15
4421.35 1.0629e-15
4424.29 1.121e-15
4427.24 1.0895e-15
4430.18 1.0957e-15
4433.12 1.0759e-15
4436.06 1.089e-15
4439.0 1.0708e-15
4441.94 1.0322e-15
4444.88 1.0377e-15
4447.82 1.0409e-15
4450.76 1.0566e-15
4453.71 1.0845e-15
4456.65 1.0952e-15
4459.59 1.0987e-15
4462.53 1.1592e-15
4465.47 1.1587e-15
4468.41 1.1036e-15
4471.35 1.1157e-15
4474.29 1.12e-15
4477.23 1.098e-15
4480.18 1.0854e-15
4483.12 1.052e-15
4486.06 1.0559e-15
4489.0 1.0623e-15
4491.94 1.0688e-15
4494.88 1.0573e-15
4497.82 1.049e-15
4500.76 1.0498e-15
4503.7 1.039e-15
4506.65 1.0415e-15
4509.59 1.0501e-15
4512.53 1.0388e-15
4515.47 1.0362e-15
4518.41 1.0051e-15
4521.35 9.4433e-16
4524.29 8.993e-16
4527.23 8.9872e-16
4530.17 9.0361e-16
4533.12 8.9472e-16
4536.06 9.6781e-16
4539.0 9.7137e-16
4541.94 1.0416e-15
4544.88 1.1142e-15
4547.82 1.1448e-15
4550.76 1.2038e-15
4553.7 1.2168e-15
4556.64 1.1883e-15
4559.59 1.2023e-15
4562.53 1.1902e-15
4565.47 1.1683e-15
4568.41 1.1364e-15
4571.35 1.1046e-15
4574.29 1.1325e-15
4577.23 1.1069e-15
4580.17 1.0946e-15
4583.11 1.0832e-15
4586.06 1.094e-15
4589.0 1.0878e-15
4591.94 1.0842e-15
4594.88 1.0683e-15
4597.82 1.0484e-15
4600.76 1.0581e-15
4603.7 1.0562e-15
4606.64 1.0743e-15
4609.58 1.0905e-15
4612.53 1.0652e-15
4615.47 1.0586e-15
4618.41 1.0646e-15
4621.35 1.0699e-15
4624.29 1.0529e-15
4627.23 1.0533e-15
4630.17 1.067e-15
4633.11 1.0856e-15
4636.05 1.065e-15
4639.0 1.104e-15
4641.94 1.0916e-15
4644.88 1.06e-15
4647.82 1.0914e-15
4650.76 1.0788e-15
4653.7 1.0405e-15
4656.64 1.0643e-15
4659.58 1.087e-15
4662.52 1.0582e-15
4665.47 1.0397e-15
4668.41 1.0294e-15
4671.35 1.0091e-15
4674.29 9.7301e-16
4677.23 1.0036e-15
4680.17 1.021e-15
4683.11 1.0027e-15
4686.05 9.8831e-16
4688.99 9.9272e-16
4691.94 1.006e-15
4694.88 1.0102e-15
4697.82 1.0061e-15
4700.76 9.7009e-16
4703.7 9.8788e-16
4706.64 1.0123e-15
4709.58 1.0272e-15
4712.52 1.0179e-15
4715.46 1.0043e-15
4718.41 1.0341e-15
4721.35 1.0441e-15
4724.29 1.0159e-15
4727.23 1.0382e-15
4730.17 1.0269e-15
4733.11 1.0407e-15
4736.05 1.0168e-15
4738.99 1.0422e-15
4741.93 1.0378e-15
4744.88 1.0604e-15
4747.82 1.0422e-15
4750.76 1.059e-15
4753.7 1.0121e-15
4756.64 9.8387e-16
4759.58 1.0191e-15
4762.52 9.7829e-16
4765.46 9.6246e-16
4768.4 9.9711e-16
4771.35 9.7558e-16
4774.29 9.6272e-16
4777.23 9.791e-16
4780.17 9.8984e-16
4783.11 9.945e-16
4786.05 9.7631e-16
4788.99 1.0028e-15
4791.93 1.0223e-15
4794.87 1.0119e-15
4797.82 1.0338e-15
4800.76 1.0431e-15
4803.7 1.0086e-15
4806.64 1.0055e-15
4809.58 1.0271e-15
4812.52 1.0258e-15
4815.46 9.976e-16
4818.4 9.7478e-16
4821.34 9.9145e-16
4824.29 1.0238e-15
4827.23 1.008e-15
4830.17 9.9357e-16
4833.11 9.7327e-16
4836.05 9.7393e-16
4838.99 9.6761e-16
4841.93 9.4941e-16
4844.87 9.5759e-16
4847.81 9.4625e-16
4850.76 9.4745e-16
4853.7 9.6219e-16
4856.64 9.5704e-16
4859.58 9.6372e-16
4862.52 9.6161e-16
4865.46 9.483e-16
4868.4 9.4858e-16
4871.34 9.6982e-16
4874.28 9.7925e-16
4877.23 9.6702e-16
4880.17 9.5373e-16
4883.11 9.4092e-16
4886.05 9.6959e-16
4888.99 9.6976e-16
4891.93 9.5068e-16
4894.87 9.5214e-16
4897.81 9.7174e-16
4900.75 9.6822e-16
4903.7 9.627e-16
4906.64 9.5961e-16
4909.58 9.6237e-16
4912.52 9.5188e-16
4915.46 9.3419e-16
4918.4 9.356e-16
4921.34 9.4968e-16
4924.28 9.4718e-16
4927.22 9.1636e-16
4930.17 9.1991e-16
4933.11 9.3011e-16
4936.05 9.2706e-16
4938.99 9.1216e-16
4941.93 9.1873e-16
4944.87 9.1668e-16
4947.81 9.2191e-16
4950.75 9.2167e-16
4953.69 9.2727e-16
4956.64 9.3832e-16
4959.58 9.0933e-16
4962.52 9.2457e-16
4965.46 9.0443e-16
4968.4 9.0102e-16
4971.34 8.9005e-16
4974.28 8.8793e-16
4977.22 8.9509e-16
4980.16 8.5907e-16
4983.11 8.5518e-16
4986.05 8.2584e-16
4988.99 8.3179e-16
4991.93 8.4813e-16
4994.87 8.7118e-16
4997.81 8.9253e-16
5000.75 9.3094e-16
5003.69 9.4498e-16
5006.63 9.6124e-16
5009.58 9.7248e-16
5012.52 9.6374e-16
5015.46 9.8757e-16
5018.4 9.9355e-16
5021.34 9.715e-16
5024.28 9.6479e-16
5027.22 9.537e-16
5030.16 9.4322e-16
5033.1 9.4122e-16
5036.05 9.4024e-16
5038.99 9.3302e-16
5041.93 9.1349e-16
5044.87 9.0743e-16
5047.81 9.0359e-16
5050.75 8.9206e-16
5053.69 8.897e-16
5056.63 8.7799e-16
5059.57 8.874e-16
5062.52 8.5012e-16
5065.46 8.6958e-16
5068.4 8.5313e-16
5071.34 8.4249e-16
5074.28 8.4578e-16
5077.22 8.097e-16
5080.16 7.8192e-16
5083.1 8.0294e-16
5086.04 8.1842e-16
5088.99 8.5073e-16
5091.93 8.6685e-16
5094.87 8.804e-16
5097.81 9.0677e-16
5100.75 9.2327e-16
5103.69 9.6481e-16
5106.63 9.5353e-16
5109.57 9.4526e-16
5112.51 9.4228e-16
5115.46 9.3268e-16
5118.4 9.4704e-16
5121.34 9.4046e-16
5124.28 9.4378e-16
5127.22 9.4844e-16
5130.16 9.2318e-16
5133.1 9.145e-16
5136.04 9.378e-16
5138.98 9.4027e-16
5141.93 9.2533e-16
5144.87 9.143e-16
5147.81 9.0873e-16
5150.75 9.114e-16
5153.69 8.9425e-16
5156.63 9.0287e-16
5159.57 8.9102e-16
5162.51 8.9944e-16
5165.46 9.0704e-16
5168.4 8.9123e-16
5171.34 9.0369e-16
5174.28 9.091e-16
5177.22 8.9931e-16
5180.16 8.9431e-16
5183.1 8.9783e-16
5186.04 8.7761e-16
5188.98 8.7833e-16
5191.93 8.9049e-16
5194.87 8.7483e-16
5197.81 8.7248e-16
5200.75 8.7212e-16
5203.69 8.7161e-16
5206.63 8.7708e-16
5209.57 8.6545e-16
5212.51 8.9047e-16
5215.45 8.9911e-16
5218.4 8.8806e-16
5221.34 8.7708e-16
5224.28 8.7383e-16
5227.22 8.6708e-16
5230.16 8.6872e-16
5233.1 8.9244e-16
5236.04 8.9581e-16
5238.98 8.9829e-16
5241.92 8.9715e-16
5244.87 8.9396e-16
5247.81 9.0707e-16
5250.75 8.939e-16
5253.69 9.0186e-16
5256.63 8.863e-16
5259.57 8.8672e-16
5262.51 8.8807e-16
5265.45 8.9742e-16
5268.39 9.0188e-16
5271.34 8.9259e-16
5274.28 8.9199e-16
5277.22 8.7941e-16
5280.16 8.9502e-16
5283.1 8.8446e-16
5286.04 8.8196e-16
5288.98 8.7423e-16
5291.92 8.7332e-16
5294.86 8.8308e-16
5297.81 8.7964e-16
5300.75 8.531e-16
5303.69 8.6579e-16
5306.63 8.7082e-16
5309.57 8.6068e-16
5312.51 8.7587e-16
5315.45 8.6888e-16
5318.39 8.7088e-16
5321.33 8.7261e-16
5324.28 8.7269e-16
5327.22 8.9168e-16
5330.16 8.669e-16
5333.1 8.5247e-16
5336.04 8.3991e-16
5338.98 8.5769e-16
5341.92 8.7263e-16
5344.86 8.4568e-16
5347.8 8.5838e-16
5350.75 8.5358e-16
5353.69 8.598e-16
5356.63 8.791e-16
5359.57 8.625e-16
5362.51 8.4977e-16
5365.45 8.6956e-16
5368.39 8.5292e-16
5371.33 8.4961e-16
5374.27 8.5674e-16
5377.22 8.5699e-16
5380.16 8.5637e-16
5383.1 8.558e-16
5386.04 8.4974e-16
5388.98 8.3329e-16
5391.92 8.5618e-16
5394.86 8.743e-16
5397.8 8.5886e-16
5400.74 8.7095e-16
5403.69 8.5062e-16
5406.63 8.6229e-16
5409.57 8.8151e-16
5412.51 8.4824e-16
5415.45 8.251e-16
5418.39 8.2691e-16
5421.33 8.392e-16
5424.27 8.443e-16
5427.21 8.4593e-16
5430.16 8.3366e-16
5433.1 8.241e-16
5436.04 8.3051e-16
5438.98 8.2745e-16
5441.92 8.3368e-16
5444.86 8.4197e-16
5447.8 8.3542e-16
5450.74 8.1569e-16
5453.68 8.0582e-16
5456.63 8.2512e-16
5459.57 8.2576e-16
5462.51 8.0778e-16
5465.45 7.9218e-16
5468.39 7.7962e-16
5471.33 7.9764e-16
5474.27 8.0674e-16
5477.21 7.7882e-16
5480.15 7.6546e-16
5483.1 7.8434e-16
5486.04 7.8179e-16
5488.98 7.688e-16
5491.92 7.9103e-16
5494.86 7.9572e-16
5497.8 7.8872e-16
5500.74 7.8001e-16
5503.68 7.7895e-16
5506.62 7.9091e-16
5509.57 7.8862e-16
5512.51 7.7675e-16
5515.45 7.7242e-16
5518.39 7.8147e-16
5521.33 8.0124e-16
5524.27 7.9264e-16
5527.21 7.7965e-16
5530.15 7.8403e-16
5533.09 7.9406e-16
5536.04 8.02e-16
5538.98 7.9895e-16
5541.92 7.7901e-16
5544.86 7.7265e-16
5547.8 7.7139e-16
5550.74 7.8284e-16
5553.68 7.8703e-16
5556.62 7.7697e-16
5559.56 7.729e-16
5562.51 7.8409e-16
5565.45 8.0076e-16
5568.39 8.02e-16
5571.33 7.8587e-16
5574.27 7.8647e-16
5577.21 7.9291e-16
5580.15 7.8662e-16
5583.09 7.9437e-16
5586.03 7.7853e-16
5588.98 7.8056e-16
5591.92 7.8731e-16
5594.86 7.708e-16
5597.8 7.7745e-16
5600.74 7.6993e-16
5603.68 7.4781e-16
5606.62 7.6762e-16
5609.56 7.5837e-16
5612.5 7.5642e-16
5615.45 7.5637e-16
5618.39 7.5439e-16
5621.33 7.5665e-16
5624.27 7.659e-16
5627.21 7.7086e-16
5630.15 7.5223e-16
5633.09 7.3917e-16
5636.03 7.4362e-16
5638.97 7.4349e-16
5641.92 7.4639e-16
5644.86 7.4455e-16
5647.8 7.6333e-16
5650.74 7.5778e-16
5653.68 7.364e-16
5656.62 7.2581e-16
5659.56 7.384e-16
5662.5 7.3945e-16
5665.44 7.1868e-16
5668.39 7.2602e-16
5671.33 7.2464e-16
5674.27 7.035e-16
5677.21 7.1182e-16
5680.15 7.3881e-16
5683.09 7.433e-16
5686.03 7.2033e-16
5688.97 7.023e-16
