# wavelength flux
4149.99767 9.50828e-18
4152.00458 1.01558e-17
4154.00141 1.00752e-17
4155.99824 9.39392e-18
4158.00516 9.30535e-18
4160.00199 9.17779e-18
4161.99882 9.04776e-18
4163.99565 9.39800e-18
4166.00256 1.02215e-17
4167.99939 1.08816e-17
4169.99622 1.07209e-17
4172.00314 9.92886e-18
4173.99997 9.15927e-18
4175.99680 9.16906e-18
4178.00371 1.04521e-17
4180.00054 1.13171e-17
4181.99737 1.05423e-17
4184.00429 1.01142e-17
4186.00112 1.01359e-17
4187.99795 1.00252e-17
4190.00486 9.86848e-18
4192.00169 9.67709e-18
4193.99852 9.56684e-18
4195.99536 9.81136e-18
4198.00227 9.94718e-18
4199.99910 9.82694e-18
4201.99593 1.01297e-17
4204.00284 1.03989e-17
4205.99968 1.00828e-17
4207.99650 9.21665e-18
4210.00342 8.72439e-18
4212.00025 8.95987e-18
4213.99708 9.24176e-18
4216.00400 9.62142e-18
4218.00082 1.00489e-17
4219.99766 1.02034e-17
4222.00457 1.01497e-17
4224.00140 1.01717e-17
4225.99823 1.04940e-17
4227.99506 1.05261e-17
4230.00198 1.00506e-17
4231.99881 9.52104e-18
4233.99564 9.97076e-18
4236.00255 1.07460e-17
4237.99938 1.02966e-17
4239.99621 9.54241e-18
4242.00313 9.34375e-18
4243.99995 9.72024e-18
4245.99679 9.37037e-18
4248.00370 8.38371e-18
4250.00053 7.84123e-18
4251.99736 8.12199e-18
4254.00427 9.21495e-18
4256.00111 1.05370e-17
4257.99793 1.06703e-17
4260.00485 1.01929e-17
4262.00168 1.02620e-17
4263.99851 1.03083e-17
4265.99534 1.03553e-17
4268.00225 1.06285e-17
4269.99909 1.09412e-17
4271.99591 1.11088e-17
4274.00283 1.10048e-17
4275.99966 1.06098e-17
4277.99649 1.01883e-17
4280.00341 1.01424e-17
4282.00023 1.07940e-17
4283.99707 1.11708e-17
4286.00398 1.06465e-17
4288.00081 1.00132e-17
4289.99764 9.93197e-18
4292.00455 1.03740e-17
4294.00139 1.05248e-17
4295.99821 1.07541e-17
4297.99505 1.11551e-17
4300.00196 1.10674e-17
4301.99879 1.11704e-17
4303.99562 1.15526e-17
4306.00253 1.13092e-17
4307.99936 1.07389e-17
4309.99619 1.06074e-17
4312.00311 1.14500e-17
4313.99994 1.20837e-17
4315.99677 1.18587e-17
4318.00368 1.11856e-17
4320.00051 1.05489e-17
4321.99734 1.02642e-17
4324.00426 1.03057e-17
4326.00109 1.01630e-17
4327.99792 9.94510e-18
4330.00483 1.01296e-17
4332.00166 1.03394e-17
4333.99849 1.06049e-17
4335.99532 1.10483e-17
4338.00224 1.07470e-17
4339.99907 1.03494e-17
4341.99590 1.08503e-17
4344.00281 1.09365e-17
4345.99964 1.07038e-17
4347.99647 1.08300e-17
4350.00339 1.07442e-17
4352.00022 1.08679e-17
4353.99705 1.14838e-17
4356.00396 1.12310e-17
4358.00079 1.07408e-17
4359.99762 1.09621e-17
4362.00454 1.12067e-17
4364.00137 1.11099e-17
4365.99820 1.07202e-17
4368.00511 1.04540e-17
4370.00194 1.04673e-17
4371.99877 1.07659e-17
4373.99561 1.13059e-17
4376.00252 1.16519e-17
4377.99935 1.15507e-17
4379.99618 1.12650e-17
4382.00309 1.11267e-17
4383.99993 1.11726e-17
4385.99675 1.12185e-17
4388.00367 1.12644e-17
4390.00050 1.13103e-17
4391.99733 1.13561e-17
4394.00425 1.14020e-17
4396.00107 1.14478e-17
4397.99791 1.14937e-17
4400.00482 1.15395e-17
4402.00165 1.15853e-17
4403.99848 1.16311e-17
4405.99531 1.16769e-17
4408.00223 1.17227e-17
4409.99905 1.17685e-17
4411.99589 1.18142e-17
4414.00280 1.18600e-17
4415.99963 1.19057e-17
4417.99646 1.19515e-17
4420.00338 1.19972e-17
4422.00020 1.23354e-17
4423.99703 1.19884e-17
4426.00395 1.17569e-17
4428.00078 1.27752e-17
4429.99761 1.31721e-17
4432.00452 1.27026e-17
4434.00136 1.22789e-17
4435.99818 1.22733e-17
4438.00510 1.22716e-17
4440.00193 1.18558e-17
4441.99876 1.16812e-17
4443.99559 1.18093e-17
4446.00250 1.19891e-17
4447.99934 1.21222e-17
4449.99616 1.26011e-17
4452.00308 1.33714e-17
4453.99991 1.31651e-17
4455.99674 1.31401e-17
4458.00366 1.37700e-17
4460.00048 1.26517e-17
4461.99732 1.15646e-17
4464.00423 1.21261e-17
4466.00106 1.28998e-17
4467.99789 1.32628e-17
4470.00480 1.32254e-17
4472.00164 1.32322e-17
4473.99846 1.33921e-17
4475.99530 1.36420e-17
4478.00221 1.38421e-17
4479.99904 1.36278e-17
4481.99587 1.31267e-17
4484.00278 1.29990e-17
4485.99961 1.33047e-17
4487.99644 1.34673e-17
4490.00336 1.28066e-17
4492.00019 1.25921e-17
4493.99702 1.31779e-17
4496.00393 1.36565e-17
4498.00076 1.38174e-17
4499.99759 1.39050e-17
4502.00451 1.42049e-17
4504.00134 1.39631e-17
4505.99817 1.33399e-17
4507.99500 1.31962e-17
4510.00191 1.37176e-17
4511.99874 1.41190e-17
4513.99557 1.36136e-17
4516.00249 1.33253e-17
4517.99932 1.35310e-17
4519.99615 1.37992e-17
4522.00306 1.39593e-17
4523.99989 1.38979e-17
4525.99672 1.36721e-17
4528.00364 1.36272e-17
4530.00047 1.37649e-17
4531.99730 1.39173e-17
4534.00421 1.40641e-17
4536.00104 1.38075e-17
4537.99788 1.32318e-17
4540.00479 1.36437e-17
4542.00162 1.42228e-17
4543.99845 1.39655e-17
4545.99528 1.34826e-17
4548.00220 1.32859e-17
4549.99902 1.34399e-17
4551.99586 1.34339e-17
4554.00277 1.37403e-17
4555.99960 1.44336e-17
4557.99643 1.45487e-17
4560.00334 1.45977e-17
4562.00018 1.47564e-17
4563.99700 1.42090e-17
4566.00392 1.36455e-17
4568.00075 1.37085e-17
4569.99758 1.42375e-17
4572.00450 1.42127e-17
4574.00132 1.37653e-17
4575.99816 1.42127e-17
4578.00507 1.45312e-17
4580.00190 1.43049e-17
4581.99873 1.42253e-17
4583.99556 1.42251e-17
4586.00248 1.40990e-17
4587.99930 1.37518e-17
4589.99614 1.34570e-17
4592.00305 1.34037e-17
4593.99988 1.35495e-17
4595.99671 1.35442e-17
4598.00362 1.35393e-17
4600.00045 1.38814e-17
4601.99728 1.41484e-17
4604.00420 1.41123e-17
4606.00103 1.38214e-17
4607.99786 1.34015e-17
4610.00477 1.33577e-17
4612.00160 1.39794e-17
4613.99843 1.45187e-17
4615.99526 1.42868e-17
4618.00218 1.33573e-17
4619.99901 1.31798e-17
4621.99584 1.33749e-17
4624.00275 1.31607e-17
4625.99958 1.31907e-17
4627.99641 1.34014e-17
4630.00333 1.35755e-17
4632.00016 1.39245e-17
4633.99699 1.43013e-17
4636.00391 1.44514e-17
4638.00073 1.42604e-17
4639.99756 1.37558e-17
4642.00448 1.32528e-17
4644.00131 1.32972e-17
4645.99814 1.35308e-17
4648.00505 1.35411e-17
4650.00189 1.33861e-17
4651.99871 1.33753e-17
4653.99554 1.35006e-17
4656.00246 1.33472e-17
4657.99929 1.34422e-17
4659.99612 1.39746e-17
4662.00303 1.43965e-17
4663.99986 1.41734e-17
4665.99669 1.33199e-17
4668.00361 1.24741e-17
4670.00044 1.24132e-17
4671.99727 1.31780e-17
4674.00418 1.40354e-17
4676.00101 1.42005e-17
4677.99784 1.38740e-17
4680.00476 1.38667e-17
4682.00159 1.38499e-17
4683.99842 1.36921e-17
4685.99525 1.35270e-17
4688.00216 1.32381e-17
4689.99899 1.30210e-17
4691.99582 1.30845e-17
4694.00274 1.29032e-17
4695.99957 1.27680e-17
4697.99640 1.31235e-17
4700.00331 1.31633e-17
4702.00014 1.29521e-17
4703.99698 1.29341e-17
4706.00389 1.29512e-17
4708.00072 1.26012e-17
4709.99755 1.19428e-17
4712.00446 1.21945e-17
4714.00130 1.27957e-17
4715.99813 1.28143e-17
4717.99495 1.25574e-17
4720.00187 1.22207e-17
4721.99870 1.18946e-17
4723.99553 1.15912e-17
4726.00245 1.06227e-17
4727.99927 9.16500e-18
4729.99611 9.03758e-18
4732.00302 1.04903e-17
4733.99985 1.21860e-17
4735.99668 1.19413e-17
4738.00359 1.15062e-17
4740.00043 1.21962e-17
4741.99725 1.28206e-17
4744.00417 1.30844e-17
4746.00100 1.28096e-17
4747.99783 1.18283e-17
4750.00475 1.08030e-17
4752.00157 1.04470e-17
4753.99841 1.09980e-17
4756.00532 1.15432e-17
4758.00215 1.17378e-17
4759.99898 1.20354e-17
4761.99581 1.22834e-17
4764.00273 1.22441e-17
4765.99955 1.19303e-17
4767.99639 1.23331e-17
4770.00330 1.28897e-17
4772.00013 1.23430e-17
4773.99696 1.23322e-17
4776.00387 1.24914e-17
4778.00070 1.15413e-17
4779.99753 1.14069e-17
4782.00445 1.23621e-17
4784.00128 1.32626e-17
4785.99811 1.33004e-17
4788.00502 1.26780e-17
4790.00185 1.21266e-17
4791.99868 1.19597e-17
4793.99551 1.20498e-17
4796.00243 1.22780e-17
4797.99926 1.31410e-17
4799.99609 1.37052e-17
4802.00300 1.33162e-17
4803.99983 1.34363e-17
4805.99666 1.37571e-17
4808.00358 1.35168e-17
4810.00041 1.29223e-17
4811.99724 1.21482e-17
4814.00415 1.16537e-17
4816.00098 1.22365e-17
4817.99781 1.26509e-17
4820.00473 1.22690e-17
4822.00156 1.25571e-17
4823.99839 1.30872e-17
4825.99522 1.33429e-17
4828.00213 1.36402e-17
4829.99896 1.37433e-17
4831.99579 1.34883e-17
4834.00271 1.30714e-17
4835.99954 1.30951e-17
4837.99637 1.35412e-17
4840.00328 1.36342e-17
4842.00011 1.31431e-17
4843.99694 1.25224e-17
4846.00386 1.25423e-17
4848.00069 1.28788e-17
4849.99752 1.29207e-17
4852.00443 1.23421e-17
4854.00126 1.18942e-17
4855.99809 1.21661e-17
4858.00501 1.30912e-17
4860.00184 1.36578e-17
4861.99867 1.36325e-17
4863.99550 1.34625e-17
4866.00241 1.31009e-17
4867.99924 1.28176e-17
4869.99608 1.29185e-17
4872.00299 1.30125e-17
4873.99982 1.33294e-17
4875.99665 1.39994e-17
4878.00356 1.36265e-17
4880.00040 1.28440e-17
4881.99723 1.28826e-17
4884.00414 1.31572e-17
4886.00097 1.32128e-17
4887.99780 1.32684e-17
4890.00472 1.33239e-17
4892.00155 1.33794e-17
4893.99838 1.34350e-17
4895.99520 1.34905e-17
4898.00212 1.35460e-17
4899.99895 1.36015e-17
4901.99578 1.36569e-17
4904.00270 1.37124e-17
4905.99952 1.37679e-17
4907.99636 1.38233e-17
4910.00327 1.38787e-17
4912.00010 1.39342e-17
4913.99693 1.39896e-17
4916.00384 1.40450e-17
4918.00068 1.41003e-17
4919.99750 1.41557e-17
4922.00442 1.42111e-17
4924.00125 1.35764e-17
4925.99808 1.35676e-17
4928.00500 1.35390e-17
4930.00182 1.33960e-17
4931.99866 1.38628e-17
4933.99548 1.38278e-17
4936.00240 1.32822e-17
4937.99923 1.34446e-17
4939.99606 1.40547e-17
4942.00298 1.43256e-17
4943.99980 1.37200e-17
4945.99664 1.33701e-17
4948.00355 1.33769e-17
4950.00038 1.30843e-17
4951.99721 1.33420e-17
4954.00412 1.40171e-17
4956.00095 1.42420e-17
4957.99778 1.37233e-17
4960.00470 1.32514e-17
4962.00153 1.36722e-17
4963.99836 1.40585e-17
4966.00527 1.41309e-17
4968.00210 1.41226e-17
4969.99893 1.40958e-17
4971.99576 1.41622e-17
4974.00268 1.42350e-17
4975.99951 1.37660e-17
4977.99634 1.32341e-17
4980.00325 1.33064e-17
4982.00008 1.38401e-17
4983.99691 1.38821e-17
4986.00383 1.39241e-17
4988.00066 1.39661e-17
4989.99749 1.40081e-17
4992.00440 1.40501e-17
4994.00123 1.40920e-17
4995.99806 1.41340e-17
4998.00498 1.41759e-17
5000.00181 1.42179e-17
5001.99864 1.42598e-17
5003.99547 1.43017e-17
5006.00238 1.43437e-17
5007.99921 1.43856e-17
5009.99604 1.44275e-17
5012.00296 1.44694e-17
5013.99979 1.45113e-17
5015.99662 1.45531e-17
5018.00353 1.45950e-17
5020.00036 1.46369e-17
5021.99719 1.45323e-17
5024.00411 1.42569e-17
5026.00094 1.37308e-17
5027.99777 1.34224e-17
5030.00468 1.39117e-17
5032.00151 1.40180e-17
5033.99834 1.41244e-17
5035.99518 1.42307e-17
5038.00209 1.43370e-17
5039.99892 1.44433e-17
5041.99575 1.45496e-17
5044.00266 1.46558e-17
5045.99950 1.47621e-17
5047.99632 1.48682e-17
5050.00324 1.49744e-17
5052.00007 1.50806e-17
5053.99690 1.51867e-17
5056.00382 1.52928e-17
5058.00065 1.53990e-17
5059.99748 1.55050e-17
5062.00439 1.56111e-17
5064.00122 1.57171e-17
5065.99805 1.58231e-17
5068.00497 1.59291e-17
5070.00180 1.60215e-17
5071.99863 1.55586e-17
5073.99545 1.47148e-17
5076.00237 1.41354e-17
5077.99920 1.42337e-17
5079.99603 1.46509e-17
5082.00295 1.49603e-17
5083.99977 1.49353e-17
5085.99661 1.47115e-17
5088.00352 1.46083e-17
5090.00035 1.46232e-17
5091.99718 1.43126e-17
5094.00409 1.44915e-17
5096.00093 1.52754e-17
5097.99775 1.54658e-17
5100.00467 1.51063e-17
5102.00150 1.46599e-17
5103.99833 1.45486e-17
5105.99516 1.49976e-17
5108.00207 1.55646e-17
5109.99891 1.54473e-17
5111.99573 1.52093e-17
5114.00265 1.52382e-17
5115.99948 1.53632e-17
5117.99631 1.53513e-17
5120.00323 1.52851e-17
5122.00005 1.54265e-17
5123.99689 1.54640e-17
5126.00380 1.54831e-17
5128.00063 1.57961e-17
5129.99746 1.60658e-17
5132.00437 1.61282e-17
5134.00120 1.60412e-17
5135.99803 1.58525e-17
5138.00495 1.57202e-17
5140.00178 1.57734e-17
5141.99861 1.59067e-17
5143.99544 1.58541e-17
5146.00235 1.56021e-17
5147.99918 1.59222e-17
5149.99601 1.64609e-17
5152.00293 1.65325e-17
5153.99976 1.62956e-17
5155.99659 1.62491e-17
5158.00350 1.66116e-17
5160.00033 1.67697e-17
5161.99716 1.66696e-17
5164.00408 1.64889e-17
5166.00091 1.62635e-17
5167.99774 1.65800e-17
5170.00465 1.73269e-17
5172.00148 1.70679e-17
5173.99831 1.66232e-17
5176.00523 1.68781e-17
5178.00206 1.73650e-17
5179.99889 1.75389e-17
5181.99572 1.72969e-17
5184.00263 1.71488e-17
5185.99946 1.71115e-17
5187.99629 1.71847e-17
5190.00321 1.74871e-17
5192.00004 1.78412e-17
5193.99687 1.77732e-17
5196.00378 1.69257e-17
5198.00061 1.68801e-17
5199.99744 1.78329e-17
5202.00436 1.82874e-17
5204.00119 1.82110e-17
5205.99802 1.80637e-17
5207.99485 1.82419e-17
5210.00176 1.81613e-17
5211.99859 1.79947e-17
5213.99543 1.83751e-17
5216.00234 1.85686e-17
5217.99917 1.83546e-17
5219.99600 1.80704e-17
5222.00291 1.78852e-17
5223.99975 1.77825e-17
5225.99657 1.77276e-17
5228.00349 1.80540e-17
5230.00032 1.83251e-17
5231.99715 1.80172e-17
5234.00407 1.77207e-17
5236.00089 1.78596e-17
5237.99773 1.84526e-17
5240.00464 1.90372e-17
5242.00147 1.93775e-17
5243.99830 1.92708e-17
5246.00522 1.82533e-17
5248.00205 1.78547e-17
5249.99887 1.89755e-17
5251.99570 1.95512e-17
5254.00262 1.91859e-17
5255.99945 1.86358e-17
5257.99628 1.89821e-17
5260.00320 1.93741e-17
5262.00002 1.90439e-17
5263.99685 1.86803e-17
5266.00377 1.85854e-17
5268.00060 1.87293e-17
5269.99743 1.88391e-17
5272.00434 1.88761e-17
5274.00118 1.88706e-17
5275.99800 1.88346e-17
5278.00492 1.87672e-17
5280.00175 1.88055e-17
5281.99858 1.91668e-17
5283.99541 1.96014e-17
5286.00232 1.99143e-17
5287.99916 2.00766e-17
5289.99598 1.96716e-17
5292.00290 1.91389e-17
5293.99973 1.94186e-17
5295.99656 1.96198e-17
5298.00348 1.94538e-17
5300.00030 1.94164e-17
5301.99714 1.94390e-17
5304.00405 1.96037e-17
5306.00088 1.99146e-17
5307.99771 1.93710e-17
5310.00462 1.87828e-17
5312.00145 1.94450e-17
5313.99828 1.96145e-17
5315.99511 1.95914e-17
5318.00203 2.04328e-17
5319.99886 2.06719e-17
5321.99569 2.01456e-17
5324.00260 1.96490e-17
5325.99943 1.98129e-17
5327.99626 2.02423e-17
5330.00318 2.03357e-17
5332.00001 2.03972e-17
5333.99684 2.03428e-17
5336.00375 2.01012e-17
5338.00058 2.00491e-17
5339.99741 2.02986e-17
5342.00433 2.06629e-17
5344.00116 2.07303e-17
5345.99799 2.06351e-17
5348.00490 2.05807e-17
5350.00173 2.04730e-17
5351.99856 2.03390e-17
5353.99539 2.03426e-17
5356.00231 2.07165e-17
5357.99914 2.12348e-17
5359.99597 2.15290e-17
5362.00288 2.13666e-17
5363.99971 2.10365e-17
5365.99654 2.08420e-17
5368.00346 2.08252e-17
5370.00029 2.07509e-17
5371.99712 2.07078e-17
5374.00403 2.10749e-17
5376.00086 2.12296e-17
5377.99770 2.10643e-17
5380.00461 2.11327e-17
5382.00144 2.12930e-17
5383.99827 2.14805e-17
5385.99510 2.16717e-17
5388.00202 2.10400e-17
5389.99884 2.00458e-17
5391.99568 1.99634e-17
5394.00259 2.06038e-17
5395.99942 2.14893e-17
5397.99625 2.21555e-17
5400.00316 2.22661e-17
5402.00000 2.18645e-17
5403.99682 2.13517e-17
5406.00374 2.13789e-17
5408.00057 2.18587e-17
5409.99740 2.22820e-17
5412.00432 2.24208e-17
5414.00114 2.23818e-17
5415.99798 2.23081e-17
5418.00489 2.19710e-17
5420.00172 2.15791e-17
5421.99855 2.13653e-17
5423.99538 2.10915e-17
5426.00230 2.10616e-17
5427.99912 2.14957e-17
5429.99595 2.19475e-17
5432.00287 2.22607e-17
5433.99970 2.23342e-17
5435.99653 2.19594e-17
5438.00344 2.14876e-17
5440.00027 2.13275e-17
5441.99710 2.15611e-17
5444.00402 2.20662e-17
5446.00085 2.25712e-17
5447.99768 2.27684e-17
5450.00459 2.24824e-17
5452.00142 2.19766e-17
5453.99825 2.18618e-17
5456.00517 2.18723e-17
5458.00200 2.17710e-17
5459.99883 2.16892e-17
5461.99566 2.17251e-17
5464.00257 2.19327e-17
5465.99941 2.22364e-17
5467.99623 2.21102e-17
5470.00315 2.17170e-17
5471.99998 2.17491e-17
5473.99681 2.18130e-17
5476.00373 2.16847e-17
5478.00055 2.14973e-17
5479.99739 2.13170e-17
5482.00430 2.13414e-17
5484.00113 2.16767e-17
5485.99796 2.18068e-17
5488.00487 2.16450e-17
5490.00170 2.14616e-17
5491.99853 2.13888e-17
5493.99536 2.11672e-17
5496.00228 2.06177e-17
5497.99911 2.04319e-17
5499.99594 2.07772e-17
5502.00285 2.12831e-17
5503.99968 2.13066e-17
5505.99651 2.09099e-17
5508.00343 2.05467e-17
5510.00026 2.05221e-17
5511.99709 2.06596e-17
5514.00400 2.06733e-17
5516.00083 2.05935e-17
5517.99766 2.05149e-17
5520.00458 2.05338e-17
5522.00141 2.06800e-17
5523.99824 2.07654e-17
5525.99507 2.06325e-17
5528.00198 2.03418e-17
5529.99881 2.00785e-17
5531.99564 1.98926e-17
5534.00256 1.96160e-17
5535.99939 1.97685e-17
5537.99622 2.03523e-17
5540.00313 2.04456e-17
5541.99996 1.95708e-17
5543.99680 1.82638e-17
5546.00371 1.78501e-17
5548.00054 1.82954e-17
5549.99737 1.89140e-17
5552.00428 1.90179e-17
5554.00111 1.91998e-17
5555.99795 1.96208e-17
5558.00486 1.97657e-17
5560.00169 1.97323e-17
5561.99852 1.96242e-17
5563.99535 1.94275e-17
5566.00227 1.90512e-17
5567.99909 1.88022e-17
5569.99593 1.90266e-17
5572.00284 1.89581e-17
5573.99967 1.87572e-17
5575.99650 1.89697e-17
5578.00341 1.85753e-17
5580.00025 1.78701e-17
5581.99707 1.77539e-17
5584.00399 1.77568e-17
5586.00082 1.76848e-17
5587.99765 1.76218e-17
5590.00457 1.76377e-17
5592.00139 1.76732e-17
5593.99823 1.76573e-17
5595.99505 1.76747e-17
5598.00197 1.77861e-17
5599.99880 1.79199e-17
5601.99563 1.78000e-17
5604.00255 1.76171e-17
5605.99937 1.76267e-17
5607.99620 1.77445e-17
5610.00312 1.78468e-17
5611.99995 1.78382e-17
5613.99678 1.77121e-17
5616.00369 1.76168e-17
5618.00052 1.76489e-17
5619.99735 1.77148e-17
5622.00427 1.75379e-17
5624.00110 1.70829e-17
5625.99793 1.67294e-17
5628.00484 1.69376e-17
5630.00167 1.74012e-17
5631.99850 1.70870e-17
5633.99533 1.66399e-17
5636.00225 1.68033e-17
5637.99908 1.75674e-17
5639.99591 1.74950e-17
5642.00282 1.65859e-17
5643.99965 1.64341e-17
5645.99648 1.68242e-17
5648.00340 1.71332e-17
5650.00023 1.69697e-17
5651.99706 1.67915e-17
5654.00398 1.67957e-17
5656.00080 1.67869e-17
5657.99763 1.66364e-17
5660.00455 1.65785e-17
5662.00138 1.68966e-17
5663.99821 1.70925e-17
5666.00512 1.70495e-17
5668.00195 1.70267e-17
5669.99878 1.72911e-17
5671.99561 1.73805e-17
5674.00253 1.68463e-17
5675.99936 1.65535e-17
5677.99619 1.66579e-17
5680.00310 1.67684e-17
5681.99993 1.64932e-17
5683.99676 1.63968e-17
5686.00368 1.69315e-17
5688.00051 1.71725e-17
5689.99734 1.70091e-17
5692.00425 1.67703e-17
5694.00108 1.66764e-17
5695.99791 1.66415e-17
5698.00483 1.65698e-17
5700.00166 1.66106e-17
5701.99849 1.67723e-17
5703.99532 1.68755e-17
5706.00223 1.66106e-17
5707.99906 1.62898e-17
5709.99590 1.62372e-17
5712.00281 1.64060e-17
5713.99964 1.67788e-17
5715.99647 1.71467e-17
5718.00338 1.71482e-17
5720.00022 1.71342e-17
5721.99705 1.71436e-17
5724.00396 1.67154e-17
5726.00079 1.63384e-17
5727.99762 1.65203e-17
5730.00454 1.72710e-17
5732.00136 1.75308e-17
5733.99820 1.71301e-17
5736.00511 1.69290e-17
5738.00194 1.69943e-17
5739.99877 1.70677e-17
5741.99560 1.69299e-17
5744.00252 1.71649e-17
5745.99934 1.75549e-17
5747.99618 1.74238e-17
5750.00309 1.73123e-17
5751.99992 1.74063e-17
5753.99675 1.74521e-17
5756.00366 1.71711e-17
5758.00050 1.67714e-17
5759.99732 1.66470e-17
5762.00424 1.67211e-17
5764.00107 1.68702e-17
5765.99790 1.70287e-17
5768.00482 1.72679e-17
5770.00164 1.74892e-17
5771.99848 1.75511e-17
5773.99530 1.74508e-17
5776.00222 1.74885e-17
5777.99905 1.76935e-17
5779.99588 1.72972e-17
5782.00280 1.68102e-17
5783.99962 1.69461e-17
5785.99645 1.75419e-17
5788.00337 1.79568e-17
5790.00020 1.78790e-17
5791.99703 1.78494e-17
5794.00394 1.77267e-17
5796.00077 1.73605e-17
5797.99760 1.70175e-17
5800.00452 1.69144e-17
5802.00135 1.71999e-17
5803.99818 1.78657e-17
5805.99501 1.81889e-17
5808.00192 1.79430e-17
5809.99875 1.77661e-17
5811.99558 1.78459e-17
5814.00250 1.79863e-17
5815.99933 1.78268e-17
5817.99616 1.77169e-17
5820.00307 1.77787e-17
5821.99990 1.77690e-17
5823.99673 1.78733e-17
5826.00365 1.81644e-17
5828.00048 1.84561e-17
5829.99731 1.82498e-17
5832.00422 1.78300e-17
5834.00105 1.78731e-17
5835.99788 1.77136e-17
5838.00480 1.75211e-17
5840.00163 1.79127e-17
5841.99846 1.81759e-17
5843.99529 1.81824e-17
5846.00220 1.81980e-17
5847.99903 1.79379e-17
5849.99586 1.75374e-17
5852.00278 1.73992e-17
5853.99961 1.77779e-17
5855.99644 1.84082e-17
5858.00335 1.87753e-17
5860.00018 1.85472e-17
5861.99701 1.81050e-17
5864.00393 1.79259e-17
5866.00076 1.78422e-17
5867.99759 1.77041e-17
5870.00450 1.75883e-17
5872.00133 1.79099e-17
5873.99816 1.83488e-17
5876.00508 1.85563e-17
5878.00191 1.87449e-17
5879.99874 1.87395e-17
5881.99557 1.84075e-17
5884.00248 1.79461e-17
