# wavelength flux
3300.00362 4.83783e-18
3302.00045 1.25215e-17
3303.99727 2.94573e-18
3306.00419 -5.14848e-17
3308.00102 -1.41051e-16
3309.99785 -1.57713e-16
3312.00477 -7.99962e-17
3314.00160 -1.83457e-17
3315.99843 7.23124e-18
3317.99526 8.47953e-18
3320.00217 3.11926e-18
3321.99900 -1.22234e-18
3323.99583 -3.68023e-18
3326.00274 -6.44558e-18
3327.99957 -8.88578e-18
3329.99640 -4.74219e-18
3332.00332 8.87939e-18
3334.00015 1.24306e-17
3335.99698 2.09397e-18
3338.00389 -9.24467e-18
3340.00072 -1.85563e-18
3341.99755 1.23246e-17
3344.00447 1.27039e-17
3346.00130 5.61529e-18
3347.99813 2.00950e-18
3350.00504 6.63773e-18
3352.00187 9.86353e-18
3353.99870 8.44723e-18
3355.99554 4.69134e-18
3358.00245 3.64555e-18
3359.99928 4.25347e-18
3361.99611 4.75506e-18
3364.00302 6.05693e-18
3365.99986 7.16032e-18
3367.99669 6.92420e-18
3370.00360 4.79825e-18
3372.00043 -2.02489e-18
3373.99726 -8.09707e-18
3376.00418 -2.76885e-18
3378.00101 3.65427e-18
3379.99784 4.53324e-18
3382.00475 2.63564e-18
3384.00158 2.93888e-18
3385.99841 5.21023e-18
3387.99524 5.74378e-18
3390.00215 6.38387e-18
3391.99898 5.85743e-18
3393.99581 2.65760e-18
3396.00273 2.18837e-18
3397.99956 5.26997e-18
3399.99639 8.86789e-18
3402.00330 9.66756e-18
3404.00013 5.80755e-18
3405.99696 -2.05590e-19
3408.00388 5.96289e-20
3410.00071 4.14079e-18
3411.99754 6.74303e-18
3414.00445 7.77109e-18
3416.00128 9.07160e-18
3417.99811 1.09565e-17
3420.00503 1.04904e-17
3422.00186 7.29431e-18
3423.99869 4.28314e-18
3425.99552 5.85887e-18
3428.00243 6.12028e-18
3429.99926 3.94157e-18
3431.99609 5.55531e-18
3434.00301 7.59741e-18
3435.99984 6.73438e-18
3437.99667 3.21793e-18
3440.00358 1.86376e-18
3442.00041 3.00176e-18
3443.99724 3.39960e-18
3446.00416 4.74723e-18
3448.00099 5.70982e-18
3449.99782 4.10089e-18
3452.00473 3.37369e-18
3454.00156 3.24455e-18
3455.99839 2.37369e-18
3457.99522 4.12933e-18
3460.00214 5.74286e-18
3461.99897 4.22919e-18
3463.99580 3.83416e-18
3466.00271 4.57251e-18
3467.99954 5.05268e-18
3469.99637 5.62411e-18
3472.00329 4.74192e-18
3474.00012 2.57520e-18
3475.99695 2.68635e-18
3478.00386 4.57340e-18
3480.00069 6.10418e-18
3481.99752 5.67951e-18
3484.00444 5.42495e-18
3486.00127 5.89997e-18
3487.99810 4.96179e-18
3490.00502 4.31035e-18
3492.00184 4.76067e-18
3493.99867 5.28458e-18
3495.99550 5.56375e-18
3498.00242 5.07692e-18
3499.99925 3.74477e-18
3501.99608 4.22214e-18
3504.00299 5.12697e-18
3505.99982 3.68779e-18
3507.99665 3.61798e-18
3510.00357 5.11334e-18
3512.00040 5.83795e-18
3513.99723 4.80543e-18
3516.00414 3.55095e-18
3518.00097 3.63385e-18
3519.99780 3.49083e-18
3522.00472 3.17838e-18
3524.00155 3.59326e-18
3525.99838 5.26516e-18
3527.99521 5.52614e-18
3530.00212 3.21949e-18
3531.99896 1.71696e-18
3533.99579 2.00122e-18
3536.00270 3.34355e-18
3537.99953 4.19803e-18
3539.99636 4.02990e-18
3542.00328 3.45835e-18
3544.00011 3.68292e-18
3545.99694 3.79968e-18
3548.00385 3.62388e-18
3550.00068 4.02130e-18
3551.99751 3.96522e-18
3554.00443 3.52620e-18
3556.00126 3.75031e-18
3557.99809 4.05705e-18
3560.00500 3.94591e-18
3562.00183 3.53267e-18
3563.99866 3.88049e-18
3565.99549 4.74808e-18
3568.00240 5.13093e-18
3569.99923 4.75939e-18
3571.99606 4.59469e-18
3574.00298 5.37324e-18
3575.99981 5.78718e-18
3577.99664 5.07389e-18
3580.00355 3.77350e-18
3582.00038 3.93850e-18
3583.99721 5.05271e-18
3586.00413 5.49282e-18
3588.00096 4.25484e-18
3589.99779 3.62329e-18
3592.00470 4.61054e-18
3594.00153 4.72416e-18
3595.99836 4.82661e-18
3597.99519 5.52288e-18
3600.00211 5.71553e-18
3601.99894 4.72756e-18
3603.99577 3.44721e-18
3606.00268 3.73304e-18
3607.99951 4.47560e-18
3609.99635 4.71741e-18
3612.00326 4.52817e-18
3614.00009 4.45059e-18
3615.99692 4.59639e-18
3618.00383 4.68460e-18
3620.00066 4.75410e-18
3621.99749 4.83094e-18
3624.00441 4.90727e-18
3626.00124 4.98161e-18
3627.99807 5.06531e-18
3630.00498 5.14339e-18
3632.00181 5.12356e-18
3633.99864 5.05086e-18
3635.99547 4.97579e-18
3638.00239 4.79816e-18
3639.99922 4.82344e-18
3641.99605 5.14778e-18
3644.00296 5.21802e-18
3645.99979 4.79468e-18
3647.99662 4.47766e-18
3650.00354 5.56466e-18
3652.00037 6.14646e-18
3653.99720 5.76225e-18
3656.00411 6.82356e-18
3658.00094 7.50882e-18
3659.99777 6.97568e-18
3662.00469 6.69824e-18
3664.00152 6.41738e-18
3665.99835 6.07238e-18
3667.99518 6.06369e-18
3670.00209 6.24451e-18
3671.99892 6.47200e-18
3673.99575 6.64782e-18
3676.00267 6.42030e-18
3677.99950 6.21018e-18
3679.99633 6.56691e-18
3682.00324 6.66146e-18
3684.00007 6.50342e-18
3685.99690 6.66823e-18
3688.00382 7.45727e-18
3690.00065 7.89651e-18
3691.99748 7.38094e-18
3694.00439 7.51895e-18
3696.00122 7.76764e-18
3697.99805 7.30133e-18
3700.00497 6.87922e-18
3702.00180 6.48853e-18
3703.99863 6.39560e-18
3705.99546 7.58352e-18
3708.00238 8.49752e-18
3709.99920 8.07163e-18
3711.99603 7.24630e-18
3714.00295 6.76202e-18
3715.99978 6.95232e-18
3717.99661 7.58495e-18
3720.00353 7.79062e-18
3722.00036 7.54844e-18
3723.99719 7.67632e-18
3726.00410 7.97316e-18
3728.00093 8.05221e-18
3729.99776 7.75671e-18
3732.00468 7.64674e-18
3734.00151 7.64815e-18
3735.99834 7.35578e-18
3737.99516 7.18970e-18
3740.00208 7.19362e-18
3741.99891 7.19755e-18
3743.99574 7.24415e-18
3746.00265 7.29074e-18
3747.99948 7.33733e-18
3749.99631 7.38390e-18
3752.00323 7.43047e-18
3754.00006 7.47704e-18
3755.99689 7.52359e-18
3758.00380 7.57013e-18
3760.00063 7.61667e-18
3761.99746 7.66320e-18
3764.00438 7.70972e-18
3766.00121 7.75623e-18
3767.99804 7.80274e-18
3770.00495 7.84924e-18
3772.00178 7.89573e-18
3773.99861 7.94221e-18
3775.99545 7.98869e-18
3778.00236 8.03515e-18
3779.99919 8.08161e-18
3781.99602 8.33403e-18
3784.00293 8.05913e-18
3785.99977 8.22333e-18
3787.99660 8.63068e-18
3790.00351 8.86399e-18
3792.00034 8.64637e-18
3793.99717 8.10150e-18
3796.00409 7.85650e-18
3798.00091 8.35163e-18
3799.99774 8.80042e-18
3802.00466 8.81116e-18
3804.00149 8.58236e-18
3805.99832 8.80704e-18
3807.99515 9.13273e-18
3810.00206 9.08188e-18
3811.99889 9.10011e-18
3813.99572 8.94728e-18
3816.00264 8.45781e-18
3817.99947 8.12768e-18
3819.99630 8.39583e-18
3822.00321 9.06743e-18
3824.00004 9.23119e-18
3825.99687 9.16683e-18
3828.00379 9.22284e-18
3830.00062 9.28357e-18
3831.99745 9.33982e-18
3834.00436 9.30485e-18
3836.00119 9.07527e-18
3837.99802 8.97524e-18
3840.00494 9.07464e-18
3842.00177 9.19771e-18
3843.99860 9.67890e-18
3845.99543 1.01898e-17
3848.00234 1.00667e-17
3849.99917 9.56622e-18
3851.99600 9.25923e-18
3854.00292 9.47174e-18
3855.99975 9.53120e-18
3857.99658 9.74606e-18
3860.00349 1.05456e-17
3862.00032 1.10041e-17
3863.99715 1.07359e-17
3866.00407 1.00360e-17
3868.00090 9.72018e-18
3869.99773 1.00821e-17
3872.00464 1.07530e-17
3874.00147 1.08495e-17
3875.99830 1.03159e-17
3877.99513 9.72141e-18
3880.00205 9.84047e-18
3881.99888 1.04927e-17
3883.99571 1.09874e-17
3886.00262 1.07198e-17
3887.99945 1.07830e-17
3889.99628 1.13634e-17
3892.00320 1.12900e-17
3894.00003 1.11124e-17
3895.99686 1.12070e-17
3898.00378 1.13388e-17
3900.00060 1.12564e-17
3901.99743 1.11502e-17
3904.00435 1.13907e-17
3906.00118 1.15351e-17
3907.99801 1.18157e-17
3910.00493 1.25691e-17
3912.00176 1.26378e-17
3913.99858 1.23517e-17
3915.99541 1.25806e-17
3918.00233 1.27720e-17
3919.99916 1.25928e-17
3921.99599 1.21252e-17
3924.00290 1.18646e-17
3925.99973 1.18556e-17
3927.99656 1.19748e-17
3930.00348 1.22547e-17
3932.00031 1.23082e-17
3933.99714 1.21098e-17
3936.00405 1.23586e-17
3938.00088 1.24576e-17
3939.99771 1.21284e-17
3942.00463 1.20867e-17
3944.00146 1.20531e-17
3945.99829 1.19131e-17
3947.99512 1.20407e-17
3950.00203 1.23576e-17
3951.99887 1.27068e-17
3953.99570 1.29619e-17
3956.00261 1.29150e-17
3957.99944 1.25984e-17
3959.99627 1.22948e-17
3962.00319 1.23947e-17
3964.00002 1.26552e-17
3965.99685 1.25974e-17
3968.00376 1.26105e-17
3970.00059 1.25977e-17
3971.99742 1.23305e-17
3974.00434 1.22895e-17
3976.00116 1.25429e-17
3977.99799 1.28406e-17
3980.00491 1.29064e-17
3982.00174 1.29840e-17
3983.99857 1.32123e-17
3985.99540 1.30510e-17
3988.00231 1.29229e-17
3989.99914 1.31950e-17
3991.99597 1.34285e-17
3994.00289 1.35979e-17
3995.99972 1.36119e-17
3997.99655 1.31718e-17
4000.00346 1.28880e-17
4002.00029 1.30326e-17
4003.99712 1.31313e-17
4006.00404 1.30484e-17
4008.00087 1.29609e-17
4009.99770 1.31570e-17
4012.00461 1.33266e-17
4014.00144 1.32815e-17
4015.99827 1.31336e-17
4018.00519 1.31977e-17
4020.00202 1.32376e-17
4021.99885 1.28928e-17
4023.99568 1.29694e-17
4026.00259 1.32949e-17
4027.99942 1.32342e-17
4029.99626 1.31214e-17
4032.00317 1.30906e-17
4034.00000 1.30812e-17
4035.99683 1.30217e-17
4038.00374 1.29053e-17
4040.00057 1.28186e-17
4041.99740 1.29276e-17
4044.00432 1.30758e-17
4046.00115 1.30086e-17
4047.99798 1.26209e-17
4050.00489 1.23224e-17
4052.00172 1.24109e-17
4053.99855 1.26912e-17
4055.99538 1.29022e-17
4058.00230 1.30362e-17
4059.99913 1.33520e-17
4061.99596 1.34822e-17
4064.00287 1.33015e-17
4065.99970 1.31144e-17
4067.99653 1.29650e-17
4070.00345 1.28178e-17
4072.00028 1.26652e-17
4073.99711 1.27241e-17
4076.00402 1.29446e-17
4078.00085 1.30489e-17
4079.99768 1.28516e-17
4082.00460 1.26542e-17
4084.00143 1.28078e-17
4085.99826 1.28438e-17
4087.99509 1.26836e-17
4090.00200 1.25489e-17
4091.99883 1.25998e-17
4093.99566 1.26554e-17
4096.00258 1.26057e-17
4097.99941 1.28553e-17
4099.99624 1.30343e-17
4102.00315 1.27906e-17
4103.99998 1.24846e-17
4105.99681 1.23032e-17
4108.00373 1.23094e-17
4110.00056 1.24762e-17
4111.99739 1.25252e-17
4114.00430 1.23942e-17
4116.00113 1.23820e-17
4117.99796 1.24785e-17
4120.00488 1.26090e-17
4122.00171 1.26947e-17
4123.99854 1.23107e-17
4125.99537 1.18350e-17
4128.00228 1.21492e-17
4129.99911 1.25772e-17
4131.99594 1.26129e-17
4134.00286 1.23325e-17
4135.99969 1.22129e-17
4137.99652 1.23815e-17
4140.00343 1.26096e-17
4142.00026 1.26395e-17
4143.99709 1.26444e-17
4146.00401 1.28459e-17
4148.00084 1.28691e-17
4149.99767 1.25730e-17
4152.00458 1.21480e-17
4154.00141 1.20695e-17
4155.99824 1.22311e-17
4158.00516 1.22670e-17
4160.00199 1.19686e-17
4161.99882 1.16721e-17
4163.99565 1.16433e-17
4166.00256 1.16590e-17
4167.99939 1.17257e-17
4169.99622 1.18916e-17
4172.00314 1.21159e-17
4173.99997 1.20496e-17
4175.99680 1.17722e-17
4178.00371 1.18435e-17
4180.00054 1.20011e-17
4181.99737 1.20199e-17
4184.00429 1.19608e-17
4186.00112 1.18971e-17
4187.99795 1.18967e-17
4190.00486 1.19763e-17
4192.00169 1.20519e-17
4193.99852 1.20479e-17
4195.99536 1.19647e-17
4198.00227 1.19400e-17
4199.99910 1.20401e-17
4201.99593 1.21535e-17
4204.00284 1.18944e-17
4205.99968 1.15726e-17
4207.99650 1.16747e-17
4210.00342 1.21058e-17
4212.00025 1.23115e-17
4213.99708 1.20517e-17
4216.00400 1.20407e-17
4218.00082 1.20645e-17
4219.99766 1.18996e-17
4222.00457 1.19864e-17
4224.00140 1.20986e-17
4225.99823 1.20506e-17
4227.99506 1.20693e-17
4230.00198 1.22043e-17
4231.99881 1.23735e-17
4233.99564 1.24411e-17
4236.00255 1.25005e-17
4237.99938 1.26073e-17
4239.99621 1.26791e-17
4242.00313 1.24625e-17
4243.99995 1.22218e-17
4245.99679 1.24579e-17
4248.00370 1.26077e-17
4250.00053 1.24110e-17
4251.99736 1.21209e-17
4254.00427 1.22899e-17
4256.00111 1.25541e-17
4257.99793 1.23089e-17
4260.00485 1.21750e-17
4262.00168 1.21729e-17
4263.99851 1.20472e-17
4265.99534 1.19630e-17
4268.00225 1.20337e-17
4269.99909 1.22186e-17
4271.99591 1.22823e-17
4274.00283 1.21985e-17
4275.99966 1.21233e-17
4277.99649 1.22891e-17
4280.00341 1.24670e-17
4282.00023 1.24632e-17
4283.99707 1.24181e-17
4286.00398 1.22974e-17
4288.00081 1.21901e-17
4289.99764 1.23332e-17
4292.00455 1.24751e-17
4294.00139 1.24487e-17
4295.99821 1.23451e-17
4297.99505 1.21981e-17
4300.00196 1.20434e-17
4301.99879 1.19469e-17
4303.99562 1.21062e-17
4306.00253 1.23623e-17
4307.99936 1.24213e-17
4309.99619 1.26380e-17
4312.00311 1.28178e-17
4313.99994 1.26042e-17
4315.99677 1.25358e-17
4318.00368 1.25113e-17
4320.00051 1.22665e-17
4321.99734 1.22861e-17
4324.00426 1.24968e-17
4326.00109 1.25710e-17
4327.99792 1.24035e-17
4330.00483 1.22849e-17
4332.00166 1.24530e-17
4333.99849 1.27044e-17
4335.99532 1.26563e-17
4338.00224 1.22804e-17
4339.99907 1.21337e-17
4341.99590 1.23260e-17
4344.00281 1.26551e-17
4345.99964 1.27890e-17
4347.99647 1.26268e-17
4350.00339 1.24117e-17
4352.00022 1.25412e-17
4353.99705 1.26947e-17
4356.00396 1.26148e-17
4358.00079 1.23865e-17
4359.99762 1.24481e-17
4362.00454 1.26082e-17
4364.00137 1.24115e-17
4365.99820 1.27241e-17
4368.00511 1.32660e-17
4370.00194 1.31481e-17
4371.99877 1.27343e-17
4373.99561 1.25323e-17
4376.00252 1.27757e-17
4377.99935 1.30789e-17
4379.99618 1.32441e-17
4382.00309 1.32441e-17
4383.99993 1.32578e-17
4385.99675 1.32715e-17
4388.00367 1.32852e-17
4390.00050 1.32989e-17
4391.99733 1.33126e-17
4394.00425 1.33263e-17
4396.00107 1.33400e-17
4397.99791 1.33537e-17
4400.00482 1.33674e-17
4402.00165 1.33811e-17
4403.99848 1.33948e-17
4405.99531 1.34084e-17
4408.00223 1.34221e-17
4409.99905 1.34358e-17
4411.99589 1.34494e-17
4414.00280 1.34631e-17
4415.99963 1.34768e-17
4417.99646 1.34904e-17
4420.00338 1.35041e-17
4422.00020 1.36553e-17
4423.99703 1.37615e-17
4426.00395 1.39937e-17
4428.00078 1.40290e-17
4429.99761 1.39787e-17
4432.00452 1.41380e-17
4434.00136 1.43934e-17
4435.99818 1.44774e-17
4438.00510 1.42343e-17
4440.00193 1.38879e-17
4441.99876 1.37677e-17
4443.99559 1.40475e-17
4446.00250 1.45406e-17
4447.99934 1.47944e-17
4449.99616 1.46641e-17
4452.00308 1.46399e-17
4453.99991 1.47155e-17
4455.99674 1.47890e-17
4458.00366 1.49121e-17
4460.00048 1.51713e-17
4461.99732 1.53848e-17
4464.00423 1.51757e-17
4466.00106 1.50887e-17
4467.99789 1.52892e-17
4470.00480 1.53393e-17
4472.00164 1.53013e-17
4473.99846 1.52684e-17
4475.99530 1.52703e-17
4478.00221 1.53704e-17
4479.99904 1.55845e-17
4481.99587 1.58650e-17
4484.00278 1.61212e-17
4485.99961 1.61834e-17
4487.99644 1.60197e-17
4490.00336 1.60713e-17
4492.00019 1.63378e-17
4493.99702 1.65357e-17
4496.00393 1.64829e-17
4498.00076 1.63802e-17
4499.99759 1.64318e-17
4502.00451 1.64359e-17
4504.00134 1.64777e-17
4505.99817 1.65942e-17
4507.99500 1.65345e-17
4510.00191 1.65996e-17
4511.99874 1.68891e-17
4513.99557 1.69337e-17
4516.00249 1.68216e-17
4517.99932 1.67073e-17
4519.99615 1.65872e-17
4522.00306 1.65756e-17
4523.99989 1.67345e-17
4525.99672 1.69985e-17
4528.00364 1.71051e-17
4530.00047 1.70982e-17
4531.99730 1.72407e-17
4534.00421 1.72475e-17
4536.00104 1.71492e-17
4537.99788 1.72321e-17
4540.00479 1.74402e-17
4542.00162 1.76465e-17
4543.99845 1.77291e-17
4545.99528 1.76204e-17
4548.00220 1.73897e-17
4549.99902 1.72163e-17
4551.99586 1.73276e-17
4554.00277 1.76260e-17
4555.99960 1.78770e-17
4557.99643 1.79728e-17
4560.00334 1.79492e-17
4562.00018 1.78236e-17
4563.99700 1.74784e-17
4566.00392 1.72274e-17
4568.00075 1.72867e-17
4569.99758 1.74384e-17
4572.00450 1.74367e-17
4574.00132 1.72921e-17
4575.99816 1.73113e-17
4578.00507 1.74468e-17
4580.00190 1.74727e-17
4581.99873 1.72170e-17
4583.99556 1.71998e-17
4586.00248 1.74387e-17
4587.99930 1.74169e-17
4589.99614 1.73315e-17
4592.00305 1.72924e-17
4593.99988 1.72130e-17
4595.99671 1.70397e-17
4598.00362 1.68214e-17
4600.00045 1.66966e-17
4601.99728 1.68504e-17
4604.00420 1.70250e-17
4606.00103 1.68842e-17
4607.99786 1.66248e-17
4610.00477 1.66199e-17
4612.00160 1.69588e-17
4613.99843 1.70286e-17
4615.99526 1.68009e-17
4618.00218 1.65361e-17
4619.99901 1.63868e-17
4621.99584 1.64352e-17
4624.00275 1.66436e-17
4625.99958 1.68561e-17
4627.99641 1.68635e-17
4630.00333 1.66857e-17
4632.00016 1.66320e-17
4633.99699 1.67475e-17
4636.00391 1.67949e-17
4638.00073 1.64639e-17
4639.99756 1.63258e-17
4642.00448 1.65296e-17
4644.00131 1.65943e-17
4645.99814 1.63554e-17
4648.00505 1.61098e-17
4650.00189 1.62922e-17
4651.99871 1.65553e-17
4653.99554 1.65850e-17
4656.00246 1.63447e-17
4657.99929 1.61571e-17
4659.99612 1.61564e-17
4662.00303 1.62581e-17
4663.99986 1.62978e-17
4665.99669 1.62294e-17
4668.00361 1.61218e-17
4670.00044 1.60977e-17
4671.99727 1.60963e-17
4674.00418 1.60182e-17
4676.00101 1.58905e-17
4677.99784 1.58138e-17
4680.00476 1.57851e-17
4682.00159 1.56077e-17
4683.99842 1.53544e-17
4685.99525 1.52020e-17
4688.00216 1.52676e-17
4689.99899 1.53181e-17
4691.99582 1.52512e-17
4694.00274 1.52563e-17
4695.99957 1.53457e-17
4697.99640 1.54690e-17
4700.00331 1.55592e-17
4702.00014 1.55375e-17
4703.99698 1.54274e-17
4706.00389 1.53204e-17
4708.00072 1.51817e-17
4709.99755 1.50392e-17
4712.00446 1.49839e-17
4714.00130 1.51051e-17
4715.99813 1.51981e-17
4717.99495 1.50301e-17
4720.00187 1.48399e-17
4721.99870 1.48011e-17
4723.99553 1.48948e-17
4726.00245 1.48669e-17
4727.99927 1.46416e-17
4729.99611 1.43532e-17
4732.00302 1.42864e-17
4733.99985 1.42931e-17
4735.99668 1.41579e-17
4738.00359 1.39366e-17
4740.00043 1.38436e-17
4741.99725 1.39368e-17
4744.00417 1.39738e-17
4746.00100 1.39800e-17
4747.99783 1.39897e-17
4750.00475 1.39485e-17
4752.00157 1.39949e-17
4753.99841 1.40579e-17
4756.00532 1.38738e-17
4758.00215 1.36810e-17
4759.99898 1.36513e-17
4761.99581 1.37409e-17
4764.00273 1.38410e-17
4765.99955 1.38635e-17
4767.99639 1.37888e-17
4770.00330 1.36684e-17
4772.00013 1.36445e-17
4773.99696 1.37939e-17
4776.00387 1.38754e-17
4778.00070 1.38445e-17
4779.99753 1.37674e-17
4782.00445 1.35825e-17
4784.00128 1.35218e-17
4785.99811 1.37461e-17
4788.00502 1.39473e-17
4790.00185 1.39297e-17
4791.99868 1.37444e-17
4793.99551 1.37122e-17
4796.00243 1.37550e-17
4797.99926 1.37788e-17
4799.99609 1.39200e-17
4802.00300 1.40303e-17
4803.99983 1.40854e-17
4805.99666 1.42923e-17
4808.00358 1.43279e-17
4810.00041 1.41089e-17
4811.99724 1.39765e-17
4814.00415 1.40381e-17
4816.00098 1.41388e-17
4817.99781 1.40435e-17
4820.00473 1.40705e-17
4822.00156 1.42281e-17
4823.99839 1.42256e-17
4825.99522 1.40386e-17
4828.00213 1.39211e-17
4829.99896 1.40975e-17
4831.99579 1.41852e-17
4834.00271 1.41780e-17
4835.99954 1.42598e-17
4837.99637 1.43081e-17
4840.00328 1.42522e-17
4842.00011 1.41556e-17
4843.99694 1.42508e-17
4846.00386 1.44293e-17
4848.00069 1.45015e-17
4849.99752 1.44814e-17
4852.00443 1.44250e-17
4854.00126 1.44163e-17
4855.99809 1.45295e-17
4858.00501 1.46561e-17
4860.00184 1.47178e-17
4861.99867 1.47647e-17
4863.99550 1.46982e-17
4866.00241 1.45120e-17
4867.99924 1.43682e-17
4869.99608 1.45222e-17
4872.00299 1.47400e-17
4873.99982 1.45039e-17
4875.99665 1.44388e-17
4878.00356 1.47092e-17
4880.00040 1.48741e-17
4881.99723 1.47064e-17
4884.00414 1.44017e-17
4886.00097 1.44439e-17
4887.99780 1.44861e-17
4890.00472 1.45282e-17
4892.00155 1.45704e-17
4893.99838 1.46125e-17
4895.99520 1.46547e-17
4898.00212 1.46968e-17
4899.99895 1.47390e-17
4901.99578 1.47811e-17
4904.00270 1.48232e-17
4905.99952 1.48653e-17
4907.99636 1.49074e-17
4910.00327 1.49495e-17
4912.00010 1.49916e-17
4913.99693 1.50336e-17
4916.00384 1.50757e-17
4918.00068 1.51178e-17
4919.99750 1.51598e-17
4922.00442 1.52018e-17
4924.00125 1.49536e-17
4925.99808 1.49479e-17
4928.00500 1.52251e-17
4930.00182 1.52248e-17
4931.99866 1.51152e-17
4933.99548 1.50473e-17
4936.00240 1.50365e-17
4937.99923 1.52951e-17
4939.99606 1.56577e-17
4942.00298 1.57389e-17
4943.99980 1.54887e-17
4945.99664 1.52677e-17
4948.00355 1.54142e-17
4950.00038 1.55301e-17
4951.99721 1.55093e-17
4954.00412 1.54839e-17
4956.00095 1.55708e-17
4957.99778 1.55237e-17
4960.00470 1.52390e-17
4962.00153 1.52553e-17
4963.99836 1.54122e-17
4966.00527 1.54009e-17
4968.00210 1.52844e-17
4969.99893 1.53977e-17
4971.99576 1.57521e-17
4974.00268 1.57857e-17
4975.99951 1.54414e-17
4977.99634 1.50379e-17
4980.00325 1.50230e-17
4982.00008 1.52408e-17
4983.99691 1.52604e-17
4986.00383 1.52801e-17
4988.00066 1.52997e-17
4989.99749 1.53193e-17
4992.00440 1.53389e-17
4994.00123 1.53585e-17
4995.99806 1.53782e-17
4998.00498 1.53978e-17
5000.00181 1.54174e-17
5001.99864 1.54370e-17
5003.99547 1.54566e-17
5006.00238 1.54762e-17
5007.99921 1.54958e-17
5009.99604 1.55153e-17
5012.00296 1.55349e-17
5013.99979 1.55545e-17
5015.99662 1.55741e-17
5018.00353 1.55937e-17
5020.00036 1.56132e-17
5021.99719 1.55772e-17
5024.00411 1.54586e-17
5026.00094 1.53250e-17
5027.99777 1.53480e-17
5030.00468 1.56574e-17
5032.00151 1.56757e-17
5033.99834 1.56940e-17
