# wavelength flux
3719.99603 5.54188e-18
3721.49933 5.08259e-18
3723.00263 4.75180e-18
3724.49590 5.06727e-18
3725.99920 5.36872e-18
3727.50250 4.87804e-18
3728.99578 4.72362e-18
3730.49908 5.17628e-18
3732.00238 4.94853e-18
3733.49566 5.13522e-18
3734.99896 5.00985e-18
3736.50226 4.67085e-18
3737.99554 5.14861e-18
3739.49884 5.06846e-18
3741.00214 4.87213e-18
3742.49542 5.17184e-18
3743.99872 4.89523e-18
3745.50202 4.63025e-18
3746.99529 4.98120e-18
3748.49859 4.75009e-18
3750.00189 4.45064e-18
3751.49517 4.56423e-18
3752.99847 4.36410e-18
3754.50177 4.70224e-18
3755.99505 5.23347e-18
3757.49835 4.55394e-18
3759.00165 4.28994e-18
3760.50495 4.81463e-18
3761.99823 4.88252e-18
3763.50153 4.19729e-18
3765.00483 4.15896e-18
3766.49811 4.45672e-18
3768.00141 4.39422e-18
3769.50471 4.34177e-18
3770.99798 4.41483e-18
3772.50128 4.90449e-18
3774.00458 4.72938e-18
3775.49786 4.37476e-18
3777.00116 4.70313e-18
3778.50446 4.49109e-18
3779.99774 4.07743e-18
3781.50104 4.20052e-18
3783.00434 4.08670e-18
3784.49762 4.07799e-18
3786.00092 4.24043e-18
3787.50422 4.02229e-18
3788.99750 4.02794e-18
3790.50080 4.38183e-18
3792.00410 4.14564e-18
3793.49737 4.09006e-18
3795.00067 4.35047e-18
3796.50397 4.55888e-18
3797.99725 4.49594e-18
3799.50055 4.24964e-18
3801.00385 4.31727e-18
3802.49713 4.36282e-18
3804.00043 4.24981e-18
3805.50373 4.23061e-18
3806.99701 4.30368e-18
3808.50031 4.26687e-18
3810.00361 4.38136e-18
3811.49689 4.42021e-18
3813.00019 4.45063e-18
3814.50349 4.59700e-18
3815.99676 4.78769e-18
3817.50006 4.53621e-18
3819.00336 4.26830e-18
3820.49664 4.44929e-18
3821.99994 4.80336e-18
3823.50324 4.85547e-18
3824.99652 4.52685e-18
3826.49982 4.92256e-18
3828.00312 5.11286e-18
3829.49640 4.71103e-18
3830.99970 4.76397e-18
3832.50300 4.97383e-18
3833.99628 5.07148e-18
3835.49958 4.83673e-18
3837.00288 4.97823e-18
3838.49615 5.41650e-18
3839.99945 5.41021e-18
3841.50275 5.40710e-18
3842.99603 4.98308e-18
3844.49933 5.06604e-18
3846.00263 5.35637e-18
3847.49591 5.43109e-18
3848.99921 5.75634e-18
3850.50251 5.88959e-18
3851.99579 5.32178e-18
3853.49909 5.22108e-18
3855.00239 5.75425e-18
3856.49567 5.84026e-18
3857.99897 5.94917e-18
3859.50227 6.24629e-18
3860.99554 6.22413e-18
3862.49884 6.18809e-18
3864.00214 6.17862e-18
3865.49542 6.40041e-18
3866.99872 6.41359e-18
3868.50202 6.72570e-18
3869.99530 6.67994e-18
3871.49860 6.37134e-18
3873.00190 6.30212e-18
3874.49518 6.13330e-18
3875.99848 6.29392e-18
3877.50178 6.66065e-18
3878.99506 6.82266e-18
3880.49836 6.72575e-18
3882.00166 6.59849e-18
3883.50496 6.69030e-18
3884.99823 6.69342e-18
3886.50153 6.63407e-18
3888.00483 6.85853e-18
3889.49811 7.13475e-18
3891.00141 7.20432e-18
3892.50471 7.01621e-18
3893.99799 6.84523e-18
3895.50129 6.82423e-18
3897.00459 6.89024e-18
3898.49787 7.22550e-18
3900.00117 7.11556e-18
3901.50447 7.08500e-18
3902.99775 7.36847e-18
3904.50105 7.61260e-18
3906.00435 7.12994e-18
3907.49762 7.22776e-18
3909.00092 7.94423e-18
3910.50422 7.78924e-18
3911.99750 7.13270e-18
3913.50080 6.88408e-18
3915.00410 7.42193e-18
3916.49738 7.58770e-18
3918.00068 7.48238e-18
3919.50398 7.41531e-18
3920.99726 7.47730e-18
3922.50056 7.69516e-18
3924.00386 7.79338e-18
3925.49714 7.47288e-18
3927.00044 7.66553e-18
3928.50374 7.66198e-18
3929.99701 7.49410e-18
3931.50031 7.20343e-18
3933.00361 7.31856e-18
3934.49689 7.46279e-18
3936.00019 7.37680e-18
3937.50349 7.16318e-18
3938.99677 7.31089e-18
3940.50007 7.42739e-18
3942.00337 7.41719e-18
3943.49665 7.83038e-18
3944.99995 8.32204e-18
3946.50325 8.27114e-18
3947.99653 8.09626e-18
3949.49983 8.03374e-18
3951.00313 7.96934e-18
3952.49640 8.18585e-18
3953.99970 8.11297e-18
3955.50300 7.81210e-18
3956.99628 7.78634e-18
3958.49958 8.21057e-18
3960.00288 8.45326e-18
3961.49616 8.51841e-18
3962.99946 8.16481e-18
3964.50276 8.05127e-18
3965.99604 7.98350e-18
3967.49934 7.54946e-18
3969.00264 7.84664e-18
3970.49592 8.54630e-18
3971.99922 8.53519e-18
3973.50252 8.23329e-18
3974.99579 8.13475e-18
3976.49909 8.28416e-18
3978.00239 8.35400e-18
3979.49567 8.04736e-18
3980.99897 8.05797e-18
3982.50227 8.40326e-18
3983.99555 8.67189e-18
3985.49885 8.38246e-18
3987.00215 8.24777e-18
3988.49543 8.47576e-18
3989.99873 8.55432e-18
3991.50203 8.02883e-18
3992.99531 8.05075e-18
3994.49861 8.03337e-18
3996.00191 8.04695e-18
3997.49518 8.29480e-18
3998.99848 8.50437e-18
4000.50178 8.66184e-18
4001.99506 8.29942e-18
4003.49836 8.18392e-18
4005.00166 8.48533e-18
4006.50496 8.33632e-18
4007.99824 8.34761e-18
4009.50154 8.44271e-18
4011.00484 8.40834e-18
4012.49812 8.60962e-18
4014.00142 8.31631e-18
4015.50472 8.15564e-18
4016.99800 8.43377e-18
4018.50130 8.38980e-18
4020.00460 8.12661e-18
4021.49787 8.02828e-18
4023.00117 8.07398e-18
4024.50447 8.23561e-18
4025.99775 8.28909e-18
4027.50105 8.05892e-18
4029.00435 8.32314e-18
4030.49763 8.14595e-18
4032.00093 8.36924e-18
4033.50423 8.18118e-18
4034.99751 7.69685e-18
4036.50081 7.97815e-18
4038.00411 7.89268e-18
4039.49739 7.91372e-18
4041.00069 7.93554e-18
4042.50399 7.88045e-18
4043.99726 7.98328e-18
4045.50056 7.81729e-18
4047.00386 8.11383e-18
4048.49714 8.14716e-18
4050.00044 8.10793e-18
4051.50374 7.73805e-18
4052.99702 7.42171e-18
4054.50032 7.68925e-18
4056.00362 7.67448e-18
4057.49690 7.82930e-18
4059.00020 7.94964e-18
4060.50350 7.89364e-18
4061.99678 7.92909e-18
4063.50008 7.68856e-18
4065.00338 7.62686e-18
4066.49665 7.99091e-18
4067.99995 8.05100e-18
4069.50325 7.91752e-18
4070.99653 8.04653e-18
4072.49983 7.97331e-18
4074.00313 7.80885e-18
4075.49641 7.82929e-18
4076.99971 7.88241e-18
4078.50301 7.87375e-18
4079.99629 7.86060e-18
4081.49959 7.78505e-18
4083.00289 8.00655e-18
4084.49617 8.18442e-18
4085.99947 8.06822e-18
4087.50277 7.93608e-18
4088.99604 7.86898e-18
4090.49934 7.84297e-18
4092.00264 7.73923e-18
4093.49592 7.81520e-18
4094.99922 7.63017e-18
4096.50252 7.56472e-18
4097.99580 7.78980e-18
4099.49910 7.89197e-18
4101.00240 7.93525e-18
4102.49568 7.94704e-18
4103.99898 7.81464e-18
4105.50228 7.81435e-18
4106.99556 7.94635e-18
4108.49886 7.91445e-18
4110.00216 7.95739e-18
4111.49543 8.04316e-18
4112.99873 7.92385e-18
4114.50203 8.05193e-18
4115.99531 8.29057e-18
4117.49861 7.81832e-18
4119.00191 7.77887e-18
4120.49519 8.04784e-18
4121.99849 8.38796e-18
4123.50179 7.98683e-18
4124.99507 8.10110e-18
4126.49837 7.73388e-18
4128.00167 8.04055e-18
4129.50497 8.36706e-18
4130.99825 8.31650e-18
4132.50155 7.99088e-18
4134.00485 8.01208e-18
4135.49812 8.28191e-18
4137.00142 8.28018e-18
4138.50472 8.14920e-18
4139.99800 8.42551e-18
4141.50130 8.32391e-18
4143.00460 8.45703e-18
4144.49788 8.36635e-18
4146.00118 7.94831e-18
4147.50448 8.15759e-18
4148.99776 8.30273e-18
4150.50106 8.26305e-18
4152.00436 8.26388e-18
4153.49764 8.37411e-18
4155.00094 8.39185e-18
4156.50424 8.16545e-18
4157.99751 8.17237e-18
4159.50081 8.33665e-18
4161.00411 8.23260e-18
4162.49739 8.34118e-18
4164.00069 8.45148e-18
4165.50399 8.68012e-18
4166.99727 8.75136e-18
4168.50057 8.55420e-18
4170.00387 8.37341e-18
4171.49715 8.45766e-18
4173.00045 8.29629e-18
4174.50375 8.27401e-18
4175.99703 8.49351e-18
4177.50033 8.52050e-18
4179.00363 8.57078e-18
4180.49690 8.57689e-18
4182.00020 8.29131e-18
4183.50350 8.28484e-18
4184.99678 8.44070e-18
4186.50008 8.70357e-18
4188.00338 8.58472e-18
4189.49666 8.81082e-18
4190.99996 9.23595e-18
4192.50326 8.72789e-18
4193.99654 8.52651e-18
4195.49984 8.78599e-18
4197.00314 8.93378e-18
4198.49642 9.04209e-18
4199.99972 8.92630e-18
4201.50302 8.79537e-18
4202.99629 8.68588e-18
4204.49959 8.67382e-18
4206.00289 8.79105e-18
4207.49617 8.83810e-18
4208.99947 8.91811e-18
4210.50277 8.84360e-18
4211.99605 8.92724e-18
4213.49935 9.32565e-18
4215.00265 9.26090e-18
4216.49593 9.02829e-18
4217.99923 8.93515e-18
4219.50253 9.19202e-18
4220.99581 9.39521e-18
4222.49911 9.35391e-18
4224.00241 9.12924e-18
4225.49568 8.95784e-18
4226.99898 9.04887e-18
4228.50228 9.22441e-18
4229.99556 9.25329e-18
4231.49886 9.06497e-18
4233.00216 9.05824e-18
4234.49544 9.19824e-18
4235.99874 9.20682e-18
4237.50204 9.34525e-18
4238.99532 9.55786e-18
4240.49862 9.37636e-18
4242.00192 9.21976e-18
4243.49520 9.36765e-18
4244.99850 9.24794e-18
4246.50180 9.11008e-18
4247.99507 9.06190e-18
4249.49837 9.34073e-18
4251.00167 9.65267e-18
4252.50497 9.62276e-18
4253.99825 9.57130e-18
4255.50155 9.41409e-18
4257.00485 9.16742e-18
4258.49813 9.50142e-18
4260.00143 9.43094e-18
4261.50473 9.39882e-18
4262.99801 9.35116e-18
4264.50131 9.60623e-18
4266.00461 9.49739e-18
4267.49789 9.50574e-18
4269.00119 9.55038e-18
4270.50449 9.71598e-18
4271.99776 9.68551e-18
4273.50106 9.67422e-18
4275.00436 9.62338e-18
4276.49764 9.60203e-18
4278.00094 9.77895e-18
4279.50424 9.86627e-18
4280.99752 9.93695e-18
4282.50082 9.88706e-18
4284.00412 9.74827e-18
4285.49740 9.98664e-18
4287.00070 9.96769e-18
4288.50400 9.84604e-18
4289.99728 9.74209e-18
4291.50058 9.96416e-18
4293.00388 1.01600e-17
4294.49715 1.02583e-17
4296.00045 1.04150e-17
4297.50375 1.05778e-17
4298.99703 1.05445e-17
4300.50033 1.03045e-17
4302.00363 1.02065e-17
4303.49691 1.01484e-17
4305.00021 1.01328e-17
4306.50351 1.01980e-17
4307.99679 1.04711e-17
4309.50009 1.02570e-17
4311.00339 1.02385e-17
4312.49667 1.03177e-17
4313.99997 1.04326e-17
4315.50327 1.04259e-17
4316.99654 1.03631e-17
4318.49984 1.02724e-17
4320.00314 1.03768e-17
4321.49642 1.07094e-17
4322.99972 1.06678e-17
4324.50302 1.05788e-17
4325.99630 1.06366e-17
4327.49960 1.02571e-17
4329.00290 1.06396e-17
4330.49618 1.05184e-17
4331.99948 1.03380e-17
4333.50278 1.04149e-17
4334.99606 1.01721e-17
4336.49936 1.03059e-17
4338.00266 1.04287e-17
4339.49593 1.03772e-17
4340.99923 1.03882e-17
4342.50253 1.02561e-17
4343.99581 1.04429e-17
4345.49911 1.05484e-17
4347.00241 1.06113e-17
4348.49569 1.05460e-17
4349.99899 1.06632e-17
4351.50229 1.06259e-17
4352.99557 1.04803e-17
4354.49887 1.04041e-17
4356.00217 1.04751e-17
4357.49545 1.05666e-17
4358.99875 1.05186e-17
4360.50205 1.07018e-17
4361.99532 1.06813e-17
4363.49862 1.05333e-17
4365.00192 1.04950e-17
4366.49520 1.05275e-17
4367.99850 1.07811e-17
4369.50180 1.08860e-17
4370.99508 1.09632e-17
4372.49838 1.08715e-17
4374.00168 1.05605e-17
4375.50498 1.05324e-17
4376.99826 1.08031e-17
4378.50156 1.09621e-17
4380.00486 1.10951e-17
4381.49814 1.10394e-17
4383.00144 1.08540e-17
4384.50474 1.09458e-17
4385.99801 1.08800e-17
4387.50131 1.07216e-17
4389.00461 1.11718e-17
4390.49789 1.12946e-17
4392.00119 1.13854e-17
4393.50449 1.15354e-17
4394.99777 1.14579e-17
4396.50107 1.13784e-17
4398.00437 1.14648e-17
4399.49765 1.16046e-17
4401.00095 1.15186e-17
4402.50425 1.14924e-17
4403.99753 1.14477e-17
4405.50083 1.15514e-17
4407.00413 1.19022e-17
4408.49740 1.17673e-17
4410.00070 1.19029e-17
4411.50400 1.18061e-17
4412.99728 1.16799e-17
4414.50058 1.15335e-17
4416.00388 1.17819e-17
4417.49716 1.19906e-17
4419.00046 1.20927e-17
4420.50376 1.17017e-17
4421.99704 1.17566e-17
4423.50034 1.20138e-17
4425.00364 1.21328e-17
4426.49692 1.22072e-17
4428.00022 1.21974e-17
4429.50352 1.22445e-17
4430.99679 1.23385e-17
4432.50009 1.23141e-17
4434.00339 1.25266e-17
4435.49667 1.27805e-17
4436.99997 1.28158e-17
4438.50327 1.28800e-17
4439.99655 1.30629e-17
4441.49985 1.30523e-17
4443.00315 1.28122e-17
4444.49643 1.28629e-17
4445.99973 1.30265e-17
4447.50303 1.31083e-17
4448.99631 1.33710e-17
4450.49961 1.33870e-17
4452.00291 1.32565e-17
4453.49618 1.33837e-17
4454.99948 1.36040e-17
4456.50278 1.33290e-17
4457.99606 1.32519e-17
4459.49936 1.36067e-17
4461.00266 1.36502e-17
4462.49594 1.38382e-17
4463.99924 1.38751e-17
4465.50254 1.39199e-17
4466.99582 1.42457e-17
4468.49912 1.41587e-17
4470.00242 1.41034e-17
4471.49570 1.41131e-17
4472.99900 1.41587e-17
4474.50230 1.42533e-17
4475.99557 1.41654e-17
4477.49887 1.44210e-17
4479.00217 1.46738e-17
4480.49545 1.47995e-17
4481.99875 1.52712e-17
4483.50205 1.45603e-17
4484.99533 1.47917e-17
4486.49863 1.47240e-17
4488.00193 1.45698e-17
4489.49521 1.47870e-17
4490.99851 1.47414e-17
4492.50181 1.49138e-17
4493.99509 1.49297e-17
4495.49839 1.49478e-17
4497.00169 1.52718e-17
4498.49496 1.54730e-17
4499.99826 1.54600e-17
4501.50156 1.53994e-17
4503.00486 1.53506e-17
4504.49814 1.55302e-17
4506.00144 1.57368e-17
4507.50474 1.58575e-17
4508.99802 1.57061e-17
4510.50132 1.56818e-17
4512.00462 1.57448e-17
4513.49790 1.57463e-17
4515.00120 1.59215e-17
4516.50450 1.58014e-17
4517.99778 1.57157e-17
4519.50108 1.58089e-17
4521.00438 1.58295e-17
4522.49765 1.60191e-17
4524.00095 1.60708e-17
4525.50425 1.61286e-17
4526.99753 1.62220e-17
4528.50083 1.62063e-17
4530.00413 1.61092e-17
4531.49741 1.59755e-17
4533.00071 1.61962e-17
4534.50401 1.66066e-17
4535.99729 1.66109e-17
4537.50059 1.67540e-17
4539.00389 1.66020e-17
4540.49717 1.63973e-17
4542.00047 1.66771e-17
4543.50377 1.64878e-17
4544.99704 1.64847e-17
4546.50034 1.65609e-17
4548.00364 1.64841e-17
4549.49692 1.64502e-17
4551.00022 1.66609e-17
4552.50352 1.68399e-17
4553.99680 1.69253e-17
4555.50010 1.65922e-17
4557.00340 1.65677e-17
4558.49668 1.69346e-17
4559.99998 1.69797e-17
4561.50328 1.70982e-17
4562.99656 1.71914e-17
4564.49986 1.70751e-17
4566.00316 1.70734e-17
4567.49643 1.68508e-17
4568.99973 1.65351e-17
4570.50303 1.66524e-17
4571.99631 1.67727e-17
4573.49961 1.68752e-17
4575.00291 1.69702e-17
4576.49619 1.69502e-17
4577.99949 1.70434e-17
4579.50279 1.70424e-17
4580.99607 1.70161e-17
4582.49937 1.69566e-17
4584.00267 1.70337e-17
4585.49595 1.71288e-17
4586.99925 1.71666e-17
4588.50255 1.70629e-17
4589.99582 1.70080e-17
4591.49912 1.69402e-17
4593.00242 1.68286e-17
4594.49570 1.69400e-17
4595.99900 1.70906e-17
4597.50230 1.69959e-17
4598.99558 1.69260e-17
4600.49888 1.67158e-17
4602.00218 1.65095e-17
4603.49546 1.66695e-17
4604.99876 1.67617e-17
4606.50206 1.68730e-17
4607.99534 1.68268e-17
4609.49864 1.67425e-17
4611.00194 1.68948e-17
4612.49521 1.68521e-17
4613.99851 1.69307e-17
4615.50181 1.67339e-17
4616.99509 1.67306e-17
4618.49839 1.69857e-17
4620.00169 1.64459e-17
4621.49497 1.64747e-17
4622.99827 1.68772e-17
4624.50157 1.66962e-17
4626.00487 1.64740e-17
4627.49815 1.63141e-17
4629.00145 1.62772e-17
4630.50475 1.63277e-17
4631.99803 1.65533e-17
4633.50133 1.63863e-17
4635.00463 1.63393e-17
4636.49790 1.63699e-17
4638.00120 1.60173e-17
4639.50450 1.58707e-17
4640.99778 1.58330e-17
4642.50108 1.60553e-17
4644.00438 1.60602e-17
4645.49766 1.58764e-17
4647.00096 1.57590e-17
4648.50426 1.56738e-17
4649.99754 1.55880e-17
4651.50084 1.56314e-17
4653.00414 1.54674e-17
4654.49742 1.51184e-17
4656.00072 1.52698e-17
4657.50402 1.54524e-17
4658.99729 1.54490e-17
4660.50059 1.52638e-17
4662.00389 1.51383e-17
4663.49717 1.52468e-17
4665.00047 1.52299e-17
4666.50377 1.50797e-17
4667.99705 1.48784e-17
4669.50035 1.46891e-17
4671.00365 1.46385e-17
4672.49693 1.45533e-17
4674.00023 1.45641e-17
4675.50353 1.47178e-17
4676.99681 1.46578e-17
4678.50011 1.45455e-17
4680.00341 1.46393e-17
4681.49668 1.45029e-17
4682.99998 1.43624e-17
4684.50328 1.43680e-17
4685.99656 1.40753e-17
4687.49986 1.41868e-17
4689.00316 1.43436e-17
4690.49644 1.42149e-17
4691.99974 1.39747e-17
4693.50304 1.39877e-17
4694.99632 1.38881e-17
4696.49962 1.37973e-17
4698.00292 1.38525e-17
4699.49620 1.37284e-17
4700.99950 1.37944e-17
4702.50280 1.37338e-17
4703.99607 1.38572e-17
4705.49937 1.37841e-17
4707.00267 1.35114e-17
4708.49595 1.32475e-17
4709.99925 1.31554e-17
4711.50255 1.32002e-17
4712.99583 1.30934e-17
4714.49913 1.30317e-17
4716.00243 1.32432e-17
4717.49571 1.32030e-17
4718.99901 1.30304e-17
4720.50231 1.31659e-17
4721.99559 1.31044e-17
4723.49889 1.29474e-17
4725.00219 1.29557e-17
4726.49546 1.28613e-17
4727.99876 1.28607e-17
4729.50206 1.28256e-17
4730.99534 1.27446e-17
4732.49864 1.30121e-17
4734.00194 1.30265e-17
4735.49522 1.28548e-17
4736.99852 1.29100e-17
4738.50182 1.29852e-17
4739.99510 1.29080e-17
4741.49840 1.29018e-17
4743.00170 1.30508e-17
4744.49498 1.29782e-17
4745.99828 1.29187e-17
4747.50158 1.29251e-17
4749.00488 1.27635e-17
4750.49815 1.26189e-17
4752.00145 1.28577e-17
4753.50475 1.28188e-17
4754.99803 1.27728e-17
4756.50133 1.26272e-17
4758.00463 1.24055e-17
4759.49791 1.24868e-17
4761.00121 1.25649e-17
4762.50451 1.25018e-17
4763.99779 1.24861e-17
4765.50109 1.25064e-17
4767.00439 1.23065e-17
4768.49767 1.21706e-17
4770.00097 1.23759e-17
4771.50427 1.25686e-17
4772.99754 1.24035e-17
4774.50084 1.23666e-17
4776.00414 1.24327e-17
4777.49742 1.24469e-17
4779.00072 1.23262e-17
4780.50402 1.23941e-17
4781.99730 1.26318e-17
4783.50060 1.25516e-17
4785.00390 1.24652e-17
4786.49718 1.26163e-17
4788.00048 1.26069e-17
4789.50378 1.23661e-17
4790.99706 1.25331e-17
4792.50036 1.27649e-17
4794.00366 1.27198e-17
4795.49693 1.26537e-17
4797.00023 1.26141e-17
4798.50353 1.25351e-17
4799.99681 1.26566e-17
4801.50011 1.29092e-17
4803.00341 1.30158e-17
4804.49669 1.29580e-17
4805.99999 1.28149e-17
4807.50329 1.27842e-17
4808.99657 1.29888e-17
4810.49987 1.29750e-17
4812.00317 1.28207e-17
4813.49645 1.28292e-17
4814.99975 1.30062e-17
4816.50305 1.31358e-17
4817.99632 1.31303e-17
4819.49962 1.29673e-17
4821.00292 1.29634e-17
4822.49620 1.29922e-17
4823.99950 1.30378e-17
4825.50280 1.30460e-17
4826.99608 1.30549e-17
4828.49938 1.30475e-17
4830.00268 1.29348e-17
4831.49596 1.29085e-17
4832.99926 1.31067e-17
4834.50256 1.30863e-17
4835.99584 1.29945e-17
4837.49914 1.31406e-17
4839.00244 1.30585e-17
4840.49571 1.28509e-17
4841.99901 1.30229e-17
4843.50231 1.29426e-17
4844.99559 1.30179e-17
4846.49889 1.30872e-17
4848.00219 1.27581e-17
4849.49547 1.27114e-17
4850.99877 1.27185e-17
4852.50207 1.27795e-17
4853.99535 1.27326e-17
4855.49865 1.28713e-17
4857.00195 1.27662e-17
4858.49523 1.26687e-17
4859.99853 1.29183e-17
4861.50183 1.28508e-17
4862.99510 1.27711e-17
4864.49840 1.28203e-17
4866.00170 1.28906e-17
4867.49498 1.28983e-17
4868.99828 1.28929e-17
4870.50158 1.30754e-17
4872.00488 1.31720e-17
4873.49816 1.32423e-17
4875.00146 1.32916e-17
4876.50476 1.31455e-17
4877.99804 1.30613e-17
4879.50134 1.33166e-17
4881.00464 1.34300e-17
4882.49792 1.34646e-17
4884.00122 1.34409e-17
4885.50452 1.34637e-17
4886.99779 1.33106e-17
4888.50109 1.35229e-17
4890.00439 1.34043e-17
4891.49767 1.32564e-17
4893.00097 1.34204e-17
4894.50427 1.34104e-17
4895.99755 1.34429e-17
4897.50085 1.36237e-17
4899.00415 1.36976e-17
4900.49743 1.36137e-17
4902.00073 1.36345e-17
4903.50403 1.38001e-17
4904.99731 1.36258e-17
4906.50061 1.36173e-17
4908.00391 1.35981e-17
4909.49718 1.37402e-17
4911.00048 1.35637e-17
4912.50378 1.35061e-17
4913.99706 1.36472e-17
4915.50036 1.37345e-17
4917.00366 1.35923e-17
4918.49694 1.35487e-17
4920.00024 1.35984e-17
4921.50354 1.35969e-17
4922.99682 1.36054e-17
4924.50012 1.36770e-17
4926.00342 1.35795e-17
4927.49670 1.34733e-17
4929.00000 1.36239e-17
4930.50330 1.37287e-17
4931.99657 1.37664e-17
4933.49987 1.35749e-17
4935.00317 1.35746e-17
4936.49645 1.36492e-17
4937.99975 1.35823e-17
4939.50305 1.37111e-17
4940.99633 1.39403e-17
4942.49963 1.39307e-17
4944.00293 1.38070e-17
4945.49621 1.35496e-17
4946.99951 1.34673e-17
4948.50281 1.35736e-17
4949.99609 1.35645e-17
4951.49939 1.35625e-17
4953.00269 1.37228e-17
4954.49596 1.38214e-17
4955.99926 1.37104e-17
4957.50256 1.37208e-17
4958.99584 1.36212e-17
4960.49914 1.36654e-17
4962.00244 1.37886e-17
4963.49572 1.37884e-17
4964.99902 1.36591e-17
4966.50232 1.34889e-17
4967.99560 1.36325e-17
4969.49890 1.35647e-17
4971.00220 1.34428e-17
4972.49548 1.34930e-17
4973.99878 1.34546e-17
4975.50208 1.34805e-17
4976.99535 1.35445e-17
4978.49865 1.36410e-17
4980.00195 1.32685e-17
4981.49523 1.36914e-17
4982.99853 1.36885e-17
4984.50183 1.34717e-17
4985.99511 1.36057e-17
4987.49841 1.37418e-17
4989.00171 1.38071e-17
4990.49499 1.34678e-17
4991.99829 1.32945e-17
4993.50159 1.33910e-17
4995.00489 1.32800e-17
4996.49817 1.32282e-17
4998.00147 1.32847e-17
4999.50477 1.33811e-17
5000.99804 1.35297e-17
5002.50134 1.32983e-17
5004.00464 1.33400e-17
5005.49792 1.33313e-17
5007.00122 1.33382e-17
5008.50452 1.33489e-17
5009.99780 1.34500e-17
5011.50110 1.34312e-17
5013.00440 1.34014e-17
5014.49768 1.34742e-17
5016.00098 1.35057e-17
5017.50428 1.35441e-17
5018.99756 1.34984e-17
5020.50086 1.34503e-17
