# wavelength flux
3400.00359 7.84357e-18
3401.99797 5.03724e-18
3404.00237 8.55931e-18
3405.99674 5.27490e-18
3408.00114 6.43288e-18
3409.99552 2.38798e-18
3411.99992 2.15820e-18
3414.00432 2.14176e-18
3415.99870 1.82447e-18
3418.00310 1.88007e-18
3419.99748 2.03681e-18
3422.00188 2.37209e-18
3423.99626 2.26569e-18
3426.00066 1.06036e-18
3427.99503 8.66897e-19
3429.99943 6.41452e-19
3432.00383 1.85335e-18
3433.99821 3.05762e-18
3436.00261 3.69884e-18
3437.99699 3.84358e-18
3440.00139 3.48499e-18
3441.99577 3.63802e-18
3444.00017 3.43601e-18
3446.00457 1.73431e-18
3447.99895 1.21015e-18
3450.00335 3.78359e-18
3451.99772 4.60065e-18
3454.00212 1.99339e-18
3455.99650 1.76296e-18
3458.00090 2.69886e-18
3459.99528 4.56711e-18
3461.99968 4.34918e-18
3464.00408 2.67756e-18
3465.99846 1.76859e-18
3468.00286 1.36395e-18
3469.99724 1.72324e-18
3472.00164 2.37032e-18
3473.99601 1.44076e-18
3476.00041 1.90201e-18
3478.00481 2.77709e-18
3479.99919 2.77064e-18
3482.00359 2.22639e-18
3483.99797 1.66097e-18
3486.00237 1.93267e-18
3487.99675 2.48050e-18
3490.00115 1.86785e-18
3491.99553 1.77759e-18
3493.99993 2.49839e-18
3496.00433 9.32528e-19
3497.99870 1.84511e-18
3500.00310 1.46393e-18
3501.99748 1.89503e-18
3504.00188 2.34629e-18
3505.99626 2.13359e-18
3508.00066 2.02800e-18
3509.99504 2.43398e-18
3511.99944 3.12947e-18
3514.00384 3.60214e-18
3515.99822 2.88446e-18
3518.00262 2.06728e-18
3519.99699 2.92812e-18
3522.00139 2.88463e-18
3523.99577 1.94640e-18
3526.00017 2.62816e-18
3528.00457 3.91635e-18
3529.99895 3.18095e-18
3532.00335 1.85460e-18
3533.99773 2.78338e-18
3536.00213 3.54074e-18
3537.99651 3.87144e-18
3540.00091 2.97862e-18
3541.99528 3.25854e-18
3543.99968 3.56325e-18
3546.00408 3.52352e-18
3547.99846 3.14770e-18
3550.00286 3.28375e-18
3551.99724 3.86114e-18
3554.00164 3.57385e-18
3555.99602 3.37432e-18
3558.00042 3.17499e-18
3560.00482 3.40292e-18
3561.99920 3.43612e-18
3564.00360 2.71058e-18
3565.99797 1.99269e-18
3568.00237 2.38163e-18
3569.99675 3.62267e-18
3572.00115 4.19686e-18
3573.99553 3.51135e-18
3575.99993 3.01875e-18
3578.00433 3.68297e-18
3579.99871 3.23899e-18
3582.00311 3.03818e-18
3583.99749 3.39880e-18
3586.00189 3.34345e-18
3587.99626 3.65480e-18
3590.00066 3.54864e-18
3591.99504 3.08843e-18
3593.99944 3.24045e-18
3596.00384 3.67841e-18
3597.99822 3.74403e-18
3600.00262 3.54166e-18
3601.99700 3.59690e-18
3604.00140 3.64096e-18
3605.99578 4.02438e-18
3608.00018 4.15219e-18
3610.00458 4.09577e-18
3611.99895 4.16156e-18
3614.00335 4.23656e-18
3615.99773 4.30697e-18
3618.00213 4.41832e-18
3619.99651 3.81213e-18
3622.00091 3.17128e-18
3623.99529 3.40464e-18
3625.99969 3.38153e-18
3628.00409 3.31862e-18
3629.99847 3.14161e-18
3632.00287 3.28374e-18
3633.99724 3.93015e-18
3636.00164 4.35365e-18
3637.99602 3.86431e-18
3640.00042 3.24863e-18
3642.00482 3.94997e-18
3643.99920 3.93345e-18
3646.00360 4.13896e-18
3647.99798 4.40989e-18
3650.00238 4.03293e-18
3651.99676 3.86654e-18
3654.00116 4.41068e-18
3655.99553 4.60662e-18
3657.99993 4.24993e-18
3660.00433 4.32025e-18
3661.99871 4.22898e-18
3664.00311 4.39467e-18
3665.99749 4.29930e-18
3668.00189 4.57777e-18
3669.99627 4.75601e-18
3672.00067 4.42058e-18
3673.99505 4.45979e-18
3675.99945 4.85065e-18
3678.00385 4.83609e-18
3679.99822 4.61468e-18
3682.00262 4.82648e-18
3683.99700 4.92539e-18
3686.00140 5.22217e-18
3687.99578 4.84906e-18
3690.00018 4.57175e-18
3692.00458 4.92302e-18
3693.99896 5.31995e-18
3696.00336 5.08915e-18
3697.99774 4.95791e-18
3700.00214 5.22945e-18
3701.99651 5.23454e-18
3704.00091 5.19874e-18
3705.99529 4.99928e-18
3707.99969 5.16758e-18
3710.00409 5.59831e-18
3711.99847 5.36413e-18
3714.00287 5.26268e-18
3715.99725 5.29248e-18
3718.00165 5.26144e-18
3719.99603 5.20512e-18
3722.00043 5.16362e-18
3724.00483 5.15235e-18
3725.99920 5.30967e-18
3728.00360 5.56460e-18
3729.99798 5.18696e-18
3732.00238 5.09065e-18
3733.99676 5.34185e-18
3736.00116 5.47537e-18
3737.99554 5.27773e-18
3739.99994 5.22487e-18
3742.00434 5.32133e-18
3743.99872 5.20485e-18
3746.00312 5.08359e-18
3747.99749 4.88442e-18
3750.00189 4.93197e-18
3751.99627 4.95100e-18
3754.00067 4.88788e-18
3755.99505 4.89540e-18
3757.99945 5.07461e-18
3760.00385 5.28109e-18
3761.99823 5.27813e-18
3764.00263 4.91973e-18
3765.99701 4.56576e-18
3768.00141 4.79783e-18
3769.99578 4.84763e-18
3772.00018 4.87866e-18
3774.00458 4.73015e-18
3775.99896 4.69331e-18
3778.00336 4.85715e-18
3779.99774 4.73624e-18
3782.00214 4.62250e-18
3783.99652 4.65081e-18
3786.00092 4.67157e-18
3787.99530 4.77385e-18
3789.99970 4.58207e-18
3792.00410 4.45046e-18
3793.99847 4.84786e-18
3796.00287 4.76258e-18
3797.99725 4.82164e-18
3800.00165 4.88145e-18
3801.99603 5.08444e-18
3804.00043 5.05974e-18
3806.00483 4.79627e-18
3807.99921 4.77677e-18
3810.00361 4.78037e-18
3811.99799 4.70456e-18
3814.00239 4.91591e-18
3815.99676 4.82182e-18
3818.00116 4.99360e-18
3819.99554 5.11054e-18
3821.99994 5.11115e-18
3824.00434 5.20444e-18
3825.99872 5.35950e-18
3828.00312 5.44748e-18
3829.99750 5.41602e-18
3832.00190 5.19653e-18
3833.99628 5.26982e-18
3836.00068 5.54996e-18
3837.99505 5.65844e-18
3839.99945 5.59064e-18
3842.00385 5.67017e-18
3843.99823 5.90247e-18
3846.00263 5.95225e-18
3847.99701 5.82214e-18
3850.00141 5.94146e-18
3851.99579 6.29654e-18
3854.00019 6.23291e-18
3856.00459 6.22441e-18
3857.99897 6.54208e-18
3860.00337 6.61440e-18
3861.99774 6.61747e-18
3864.00214 6.64883e-18
3865.99652 6.65419e-18
3868.00092 6.85040e-18
3869.99530 7.14730e-18
3871.99970 7.17014e-18
3874.00410 7.12087e-18
3875.99848 7.26224e-18
3878.00288 7.24949e-18
3879.99726 7.53118e-18
3882.00166 7.63800e-18
3883.99603 7.70291e-18
3886.00043 7.80254e-18
3888.00483 7.84492e-18
3889.99921 7.85901e-18
3892.00361 7.95473e-18
3893.99799 8.07602e-18
3896.00239 8.08762e-18
3897.99677 8.03968e-18
3900.00117 8.24709e-18
3901.99555 8.33213e-18
3903.99995 8.44893e-18
3906.00435 8.39039e-18
3907.99872 8.43753e-18
3910.00312 8.50923e-18
3911.99750 8.66651e-18
3914.00190 8.84188e-18
3915.99628 8.60665e-18
3918.00068 8.64679e-18
3920.00508 8.71862e-18
3921.99946 8.80762e-18
3924.00386 8.76442e-18
3925.99824 8.69973e-18
3928.00264 8.74248e-18
3929.99701 8.69914e-18
3932.00141 8.67070e-18
3933.99579 8.77567e-18
3936.00019 8.86840e-18
3938.00459 8.97362e-18
3939.99897 9.06497e-18
3942.00337 9.02706e-18
3943.99775 9.10823e-18
3946.00215 9.07453e-18
3947.99653 9.18002e-18
3950.00093 9.29232e-18
3951.99530 9.46688e-18
3953.99970 9.51931e-18
3956.00410 9.39386e-18
3957.99848 9.46385e-18
3960.00288 9.56440e-18
3961.99726 9.46565e-18
3964.00166 9.22943e-18
3965.99604 9.35406e-18
3968.00044 9.41365e-18
3970.00484 9.41199e-18
3971.99922 9.33198e-18
3974.00362 9.34176e-18
3975.99799 9.37060e-18
3978.00239 9.32821e-18
3979.99677 9.48754e-18
3982.00117 9.60185e-18
3983.99555 9.52986e-18
3985.99995 9.48777e-18
3988.00435 9.44551e-18
3989.99873 9.67278e-18
3992.00313 9.57781e-18
3993.99751 9.43551e-18
3996.00191 9.58399e-18
3997.99628 9.74041e-18
4000.00068 9.50919e-18
4001.99506 9.47710e-18
4003.99946 9.46800e-18
4006.00386 9.53708e-18
4007.99824 9.46496e-18
4010.00264 9.43097e-18
4011.99702 9.45145e-18
4014.00142 9.52876e-18
4015.99580 9.44400e-18
4018.00020 9.39258e-18
4020.00460 9.39572e-18
4021.99897 9.34072e-18
4024.00337 9.34294e-18
4025.99775 9.29580e-18
4028.00215 9.31610e-18
4029.99653 9.26549e-18
4032.00093 9.22303e-18
4033.99531 9.18679e-18
4035.99971 9.13092e-18
4038.00411 9.06501e-18
4039.99849 9.02630e-18
4042.00289 8.99708e-18
4043.99726 8.95008e-18
4046.00166 8.98545e-18
4047.99604 8.84003e-18
4050.00044 8.83093e-18
4052.00484 8.78705e-18
4053.99922 8.74474e-18
4056.00362 8.73507e-18
4057.99800 8.79198e-18
4060.00240 8.85781e-18
4061.99678 8.81163e-18
4064.00118 8.70732e-18
4065.99555 8.76194e-18
4067.99995 8.72304e-18
4070.00435 8.76175e-18
4071.99873 8.83619e-18
4074.00313 8.85534e-18
4075.99751 8.76542e-18
4078.00191 8.72555e-18
4079.99629 8.73288e-18
4082.00069 8.75128e-18
4083.99507 8.76458e-18
4085.99947 8.74165e-18
4088.00387 8.72736e-18
4089.99824 8.76013e-18
4092.00264 8.74642e-18
4093.99702 8.76429e-18
4096.00142 8.78100e-18
4097.99580 8.73358e-18
4100.00020 8.70604e-18
4102.00460 8.71435e-18
4103.99898 8.73134e-18
4106.00338 8.75343e-18
4107.99776 8.76885e-18
4110.00216 8.71897e-18
4111.99653 8.75535e-18
4114.00093 8.78633e-18
4115.99531 8.79266e-18
4117.99971 8.82115e-18
4120.00411 8.84847e-18
4121.99849 8.87822e-18
4124.00289 8.90420e-18
4125.99727 8.91774e-18
4128.00167 8.91451e-18
4129.99605 8.92642e-18
4132.00045 8.98760e-18
4134.00485 9.01165e-18
4135.99922 8.98152e-18
4138.00362 8.99129e-18
4139.99800 9.03209e-18
4142.00240 9.04832e-18
4143.99678 9.06292e-18
4146.00118 9.07886e-18
4147.99556 9.05140e-18
4149.99996 9.01598e-18
4152.00436 9.05894e-18
4153.99874 9.12869e-18
4156.00314 9.12676e-18
4157.99751 9.10659e-18
4160.00191 9.12123e-18
4161.99629 9.20365e-18
4164.00069 9.25412e-18
4165.99507 9.25472e-18
4167.99947 9.26882e-18
4170.00387 9.28961e-18
4171.99825 9.26083e-18
4174.00265 9.25156e-18
4175.99703 9.25192e-18
4178.00143 9.28118e-18
4179.99580 9.26309e-18
4182.00020 9.33098e-18
4184.00460 9.38721e-18
4185.99898 9.41425e-18
4188.00338 9.45143e-18
4189.99776 9.51564e-18
4192.00216 9.58035e-18
4193.99654 9.56770e-18
4196.00094 9.57120e-18
4197.99532 9.69592e-18
4199.99972 9.77747e-18
4202.00412 9.80669e-18
4203.99849 9.80975e-18
4206.00289 9.83700e-18
4207.99727 9.89154e-18
4210.00167 9.96513e-18
4211.99605 1.00473e-17
4214.00045 1.00605e-17
4216.00485 1.01013e-17
4217.99923 1.00892e-17
4220.00363 1.02304e-17
4221.99801 1.02666e-17
4224.00241 1.03529e-17
4225.99678 1.04434e-17
4228.00118 1.05376e-17
4229.99556 1.05722e-17
4231.99996 1.05245e-17
4234.00436 1.05133e-17
4235.99874 1.05457e-17
4238.00314 1.05921e-17
4239.99752 1.05803e-17
4242.00192 1.05650e-17
4243.99630 1.06406e-17
4246.00070 1.07251e-17
4247.99507 1.07360e-17
4249.99947 1.07245e-17
4252.00387 1.07501e-17
4253.99825 1.07730e-17
4256.00265 1.07574e-17
4257.99703 1.07835e-17
4260.00143 1.07820e-17
4261.99581 1.08338e-17
4264.00021 1.08572e-17
4266.00461 1.08430e-17
4267.99899 1.08221e-17
4270.00339 1.08382e-17
4271.99776 1.08779e-17
4274.00216 1.09233e-17
4275.99654 1.09473e-17
4278.00094 1.09660e-17
4279.99532 1.10062e-17
4281.99972 1.10796e-17
4284.00412 1.10997e-17
4285.99850 1.11035e-17
4288.00290 1.11116e-17
4289.99728 1.11646e-17
4292.00168 1.12588e-17
4293.99605 1.13091e-17
4296.00045 1.13027e-17
4297.99483 1.13322e-17
4299.99923 1.13701e-17
4302.00363 1.13990e-17
4303.99801 1.14565e-17
4306.00241 1.13875e-17
4307.99679 1.13638e-17
4310.00119 1.14222e-17
4311.99557 1.14561e-17
4313.99997 1.14347e-17
4316.00437 1.14585e-17
4317.99874 1.15621e-17
4320.00314 1.16085e-17
4321.99752 1.16509e-17
4324.00192 1.17009e-17
4325.99630 1.17166e-17
4328.00070 1.17070e-17
4330.00510 1.17666e-17
4331.99948 1.17866e-17
4334.00388 1.17800e-17
4335.99826 1.17662e-17
4338.00266 1.17465e-17
4339.99703 1.17881e-17
4342.00143 1.18868e-17
4343.99581 1.18882e-17
4346.00021 1.18849e-17
4348.00461 1.18788e-17
4349.99899 1.18854e-17
4352.00339 1.18343e-17
4353.99777 1.18249e-17
4356.00217 1.18529e-17
4357.99655 1.18716e-17
4360.00095 1.18896e-17
4361.99532 1.19254e-17
4363.99972 1.20302e-17
4366.00412 1.21239e-17
4367.99850 1.21625e-17
4370.00290 1.22020e-17
4371.99728 1.22362e-17
4374.00168 1.22753e-17
4375.99606 1.23546e-17
4378.00046 1.24375e-17
4380.00486 1.24871e-17
4381.99924 1.25559e-17
4384.00364 1.26439e-17
4385.99801 1.27032e-17
4388.00241 1.27544e-17
4389.99679 1.28286e-17
4392.00119 1.29110e-17
4393.99557 1.30221e-17
4395.99997 1.30788e-17
4398.00437 1.31434e-17
4399.99875 1.32374e-17
4402.00315 1.33407e-17
4403.99753 1.34273e-17
4406.00193 1.34759e-17
4407.99630 1.34929e-17
4410.00070 1.35689e-17
4411.99508 1.36676e-17
4413.99948 1.37041e-17
4416.00388 1.37208e-17
4417.99826 1.37725e-17
4420.00266 1.38818e-17
4421.99704 1.39868e-17
4424.00144 1.40062e-17
4425.99582 1.40482e-17
4428.00022 1.41765e-17
4430.00462 1.42040e-17
4431.99899 1.42194e-17
4434.00339 1.43421e-17
4435.99777 1.44590e-17
4438.00217 1.45422e-17
4439.99655 1.45851e-17
4442.00095 1.46728e-17
4443.99533 1.48026e-17
4445.99973 1.49169e-17
4448.00413 1.50547e-17
4449.99851 1.52014e-17
4452.00291 1.53467e-17
4453.99728 1.54446e-17
4456.00168 1.55398e-17
4457.99606 1.57330e-17
4460.00046 1.58639e-17
4462.00486 1.59595e-17
4463.99924 1.60916e-17
4466.00364 1.62218e-17
4467.99802 1.63389e-17
4470.00242 1.64914e-17
4471.99680 1.65579e-17
4474.00120 1.66405e-17
4475.99557 1.68002e-17
4477.99997 1.68406e-17
4480.00437 1.69733e-17
4481.99875 1.70651e-17
4484.00315 1.71763e-17
4485.99753 1.73457e-17
4488.00193 1.74841e-17
4489.99631 1.75986e-17
4492.00071 1.77941e-17
4493.99509 1.79342e-17
4495.99949 1.79989e-17
4498.00389 1.81607e-17
4499.99826 1.82820e-17
4502.00266 1.85337e-17
4503.99704 1.86676e-17
4506.00144 1.87819e-17
4507.99582 1.88728e-17
4510.00022 1.89640e-17
4512.00462 1.90671e-17
4513.99900 1.91342e-17
4516.00340 1.92027e-17
4517.99778 1.92611e-17
4520.00218 1.93453e-17
4521.99655 1.93737e-17
4524.00095 1.94448e-17
4525.99533 1.95650e-17
4527.99973 1.96490e-17
4530.00413 1.97122e-17
4531.99851 1.98204e-17
4534.00291 1.99170e-17
4535.99729 2.00044e-17
4538.00169 2.01121e-17
4539.99607 2.02336e-17
4542.00047 2.03291e-17
4543.99484 2.03551e-17
4545.99924 2.03835e-17
4548.00364 2.04476e-17
4549.99802 2.04851e-17
4552.00242 2.05170e-17
4553.99680 2.05561e-17
4556.00120 2.05875e-17
4557.99558 2.06244e-17
4559.99998 2.06656e-17
4562.00438 2.06991e-17
4563.99876 2.07325e-17
4566.00316 2.07585e-17
4567.99753 2.07669e-17
4570.00193 2.07544e-17
4571.99631 2.07553e-17
4574.00071 2.08010e-17
4576.00511 2.08538e-17
4577.99949 2.08730e-17
4580.00389 2.09037e-17
4581.99827 2.09815e-17
4584.00267 2.10587e-17
4585.99705 2.11210e-17
4588.00145 2.11894e-17
4589.99582 2.12349e-17
4592.00022 2.12528e-17
4594.00462 2.12708e-17
4595.99900 2.13168e-17
4598.00340 2.13084e-17
4599.99778 2.12618e-17
4602.00218 2.11811e-17
4603.99656 2.11162e-17
4606.00096 2.11095e-17
4607.99534 2.10967e-17
4609.99974 2.10665e-17
4612.00414 2.10006e-17
4613.99851 2.09286e-17
4616.00291 2.08593e-17
4617.99729 2.08021e-17
4620.00169 2.07528e-17
4621.99607 2.06613e-17
4624.00047 2.05686e-17
4626.00487 2.04812e-17
4627.99925 2.03815e-17
4630.00365 2.02884e-17
4631.99803 2.01479e-17
4634.00243 2.00496e-17
4635.99680 1.99826e-17
4638.00120 1.99233e-17
4639.99558 1.98572e-17
4641.99998 1.98010e-17
4644.00438 1.97215e-17
4645.99876 1.96553e-17
4648.00316 1.95762e-17
4649.99754 1.95076e-17
4652.00194 1.94287e-17
4653.99632 1.93197e-17
4656.00072 1.92178e-17
4657.99509 1.90991e-17
4659.99949 1.89875e-17
4662.00389 1.88630e-17
4663.99827 1.87418e-17
4666.00267 1.86059e-17
4667.99705 1.84929e-17
4670.00145 1.83955e-17
4671.99583 1.83100e-17
4674.00023 1.81911e-17
4676.00463 1.80774e-17
4677.99901 1.80135e-17
4680.00341 1.79133e-17
4681.99778 1.78054e-17
4684.00218 1.77416e-17
4685.99656 1.76554e-17
4688.00096 1.75666e-17
4689.99534 1.74925e-17
4691.99974 1.73983e-17
4694.00414 1.72934e-17
4695.99852 1.72041e-17
4698.00292 1.71189e-17
4699.99730 1.70256e-17
4702.00170 1.69184e-17
4703.99607 1.68417e-17
4706.00047 1.67799e-17
4708.00487 1.67133e-17
4709.99925 1.66246e-17
4712.00365 1.65594e-17
4713.99803 1.65297e-17
4716.00243 1.64848e-17
4717.99681 1.64058e-17
4720.00121 1.63628e-17
4721.99559 1.63064e-17
4723.99999 1.62501e-17
4726.00439 1.62112e-17
4727.99876 1.62061e-17
4730.00316 1.62082e-17
4731.99754 1.61854e-17
4734.00194 1.61885e-17
4735.99632 1.62053e-17
4738.00072 1.61994e-17
4739.99510 1.62014e-17
4741.99950 1.62152e-17
4744.00390 1.62204e-17
4745.99828 1.61872e-17
4748.00268 1.61528e-17
4749.99705 1.61487e-17
4752.00145 1.61105e-17
4753.99583 1.60728e-17
4756.00023 1.60216e-17
4758.00463 1.59992e-17
4759.99901 1.59677e-17
4762.00341 1.58961e-17
4763.99779 1.58159e-17
4766.00219 1.57439e-17
4767.99657 1.57043e-17
4770.00097 1.56511e-17
4771.99534 1.56185e-17
4773.99974 1.56118e-17
4776.00414 1.56195e-17
4777.99852 1.56226e-17
4780.00292 1.56444e-17
4781.99730 1.56651e-17
4784.00170 1.57011e-17
4785.99608 1.57444e-17
4788.00048 1.57856e-17
4789.99486 1.57964e-17
4791.99926 1.58555e-17
4794.00366 1.59301e-17
4795.99803 1.59876e-17
4798.00243 1.60415e-17
4799.99681 1.61121e-17
4802.00121 1.61713e-17
4803.99559 1.62326e-17
4805.99999 1.62993e-17
4808.00439 1.63679e-17
4809.99877 1.64119e-17
4812.00317 1.64668e-17
4813.99755 1.64931e-17
4816.00195 1.65153e-17
4817.99632 1.65408e-17
4820.00072 1.65789e-17
4822.00512 1.65742e-17
4823.99950 1.65605e-17
4826.00390 1.65753e-17
4827.99828 1.66243e-17
4830.00268 1.66258e-17
4831.99706 1.66296e-17
4834.00146 1.66399e-17
4835.99584 1.66265e-17
4838.00024 1.65955e-17
4840.00464 1.65720e-17
4841.99901 1.65652e-17
4844.00341 1.65678e-17
4845.99779 1.65496e-17
4848.00219 1.65116e-17
4849.99657 1.64647e-17
4852.00097 1.64462e-17
4853.99535 1.64085e-17
4855.99975 1.63493e-17
4858.00415 1.63118e-17
4859.99853 1.63074e-17
4862.00293 1.62852e-17
4863.99730 1.62753e-17
4866.00170 1.63364e-17
4867.99608 1.63989e-17
4870.00048 1.64371e-17
4872.00488 1.64731e-17
4873.99926 1.65357e-17
4876.00366 1.66270e-17
4877.99804 1.66867e-17
4880.00244 1.67205e-17
4881.99682 1.67530e-17
4884.00122 1.68000e-17
4885.99559 1.68568e-17
4887.99999 1.69051e-17
4890.00439 1.69571e-17
4891.99877 1.69807e-17
4894.00317 1.70119e-17
4895.99755 1.70527e-17
4898.00195 1.71027e-17
4899.99633 1.71254e-17
4902.00073 1.71348e-17
4903.99511 1.71360e-17
4905.99951 1.71262e-17
4908.00391 1.70973e-17
4909.99828 1.70966e-17
4912.00268 1.70933e-17
4913.99706 1.70555e-17
4916.00146 1.70209e-17
4917.99584 1.70010e-17
4920.00024 1.69801e-17
4922.00464 1.69520e-17
4923.99902 1.69266e-17
4926.00342 1.69255e-17
4927.99780 1.69452e-17
4930.00220 1.69573e-17
4931.99657 1.70021e-17
4934.00097 1.70680e-17
4935.99535 1.71099e-17
4937.99975 1.71536e-17
4940.00415 1.71900e-17
4941.99853 1.72100e-17
4944.00293 1.72017e-17
4945.99731 1.72292e-17
4948.00171 1.72499e-17
4949.99609 1.72567e-17
4952.00049 1.72416e-17
4953.99486 1.72511e-17
4955.99926 1.72786e-17
4958.00366 1.72883e-17
4959.99804 1.72588e-17
4962.00244 1.72059e-17
4963.99682 1.71918e-17
4966.00122 1.72132e-17
4967.99560 1.71973e-17
4970.00000 1.71535e-17
4972.00440 1.71231e-17
4973.99878 1.70797e-17
4976.00318 1.70309e-17
4977.99755 1.69922e-17
4980.00195 1.69748e-17
4981.99633 1.69647e-17
4984.00073 1.69620e-17
4985.99511 1.69282e-17
4987.99951 1.69167e-17
4990.00391 1.68965e-17
4991.99829 1.68857e-17
4994.00269 1.68813e-17
4995.99707 1.68344e-17
4998.00147 1.67766e-17
4999.99584 1.67464e-17
5002.00024 1.67112e-17
5004.00464 1.66817e-17
5005.99902 1.66878e-17
5008.00342 1.66865e-17
5009.99780 1.66921e-17
5012.00220 1.67075e-17
5013.99658 1.67338e-17
5016.00098 1.67439e-17
5017.99536 1.67593e-17
5019.99976 1.67759e-17
5022.00416 1.67913e-17
5023.99853 1.68328e-17
5026.00293 1.68745e-17
5027.99731 1.68868e-17
5030.00171 1.68846e-17
5031.99609 1.69327e-17
5034.00049 1.69722e-17
5036.00489 1.70089e-17
5037.99927 1.70709e-17
5040.00367 1.71387e-17
5041.99805 1.72477e-17
5044.00245 1.73283e-17
5045.99682 1.73845e-17
5048.00122 1.74516e-17
5049.99560 1.75116e-17
5052.00000 1.75445e-17
5054.00440 1.75697e-17
5055.99878 1.76195e-17
5058.00318 1.76680e-17
5059.99756 1.76692e-17
5062.00196 1.76780e-17
5063.99634 1.77211e-17
5066.00074 1.77840e-17
5068.00514 1.78192e-17
5069.99951 1.78468e-17
5072.00391 1.78810e-17
5073.99829 1.79360e-17
5076.00269 1.79804e-17
5077.99707 1.80521e-17
5080.00147 1.81240e-17
5081.99585 1.81839e-17
5084.00025 1.82145e-17
5086.00465 1.82525e-17
5087.99903 1.83019e-17
5090.00343 1.83542e-17
5091.99780 1.83921e-17
5094.00220 1.84378e-17
5095.99658 1.84674e-17
5098.00098 1.84817e-17
5099.99536 1.85428e-17
5101.99976 1.85685e-17
5104.00416 1.85876e-17
5105.99854 1.86166e-17
5108.00294 1.86403e-17
5109.99732 1.86828e-17
5112.00172 1.87053e-17
5113.99609 1.87680e-17
5116.00049 1.88125e-17
5118.00489 1.88513e-17
5119.99927 1.88589e-17
5122.00367 1.88737e-17
5123.99805 1.88948e-17
5126.00245 1.89303e-17
5127.99683 1.90000e-17
5130.00123 1.90452e-17
5131.99561 1.90953e-17
5134.00001 1.91464e-17
