# wavelength flux
3719.99603 5.04520e-18
3721.49933 4.81890e-18
3723.00263 4.97659e-18
3724.49590 5.03556e-18
3725.99920 5.13815e-18
3727.50250 4.91422e-18
3728.99578 4.59145e-18
3730.49908 5.16764e-18
3732.00238 4.81296e-18
3733.49566 4.95540e-18
3734.99896 5.29229e-18
3736.50226 4.71946e-18
3737.99554 4.84385e-18
3739.49884 4.80101e-18
3741.00214 4.55541e-18
3742.49542 4.63226e-18
3743.99872 4.86612e-18
3745.50202 4.96501e-18
3746.99529 4.57217e-18
3748.49859 4.65352e-18
3750.00189 4.76576e-18
3751.49517 4.58551e-18
3752.99847 4.41312e-18
3754.50177 4.32638e-18
3755.99505 4.62123e-18
3757.49835 4.91754e-18
3759.00165 4.61469e-18
3760.50495 4.38725e-18
3761.99823 4.50037e-18
3763.50153 4.34868e-18
3765.00483 4.39249e-18
3766.49811 4.73948e-18
3768.00141 4.63461e-18
3769.50471 4.28499e-18
3770.99798 4.28386e-18
3772.50128 4.44618e-18
3774.00458 4.44207e-18
3775.49786 4.15902e-18
3777.00116 4.28217e-18
3778.50446 4.56362e-18
3779.99774 4.55607e-18
3781.50104 4.31050e-18
3783.00434 4.43865e-18
3784.49762 4.44135e-18
3786.00092 4.37544e-18
3787.50422 4.46711e-18
3788.99750 4.44508e-18
3790.50080 4.37010e-18
3792.00410 4.39773e-18
3793.49737 4.38862e-18
3795.00067 4.50677e-18
3796.50397 4.18110e-18
3797.99725 4.34507e-18
3799.50055 4.71152e-18
3801.00385 4.44811e-18
3802.49713 4.40564e-18
3804.00043 4.73870e-18
3805.50373 4.62891e-18
3806.99701 3.95340e-18
3808.50031 4.05070e-18
3810.00361 4.38261e-18
3811.49689 4.23783e-18
3813.00019 4.55024e-18
3814.50349 4.61015e-18
3815.99676 4.47301e-18
3817.50006 4.36951e-18
3819.00336 4.53326e-18
3820.49664 4.54861e-18
3821.99994 4.41201e-18
3823.50324 4.54008e-18
3824.99652 4.81183e-18
3826.49982 4.71063e-18
3828.00312 4.67568e-18
3829.49640 4.91751e-18
3830.99970 4.66513e-18
3832.50300 4.49124e-18
3833.99628 4.75495e-18
3835.49958 5.09323e-18
3837.00288 5.03115e-18
3838.49615 4.87354e-18
3839.99945 5.23938e-18
3841.50275 5.42239e-18
3842.99603 5.46275e-18
3844.49933 5.53507e-18
3846.00263 5.49967e-18
3847.49591 5.45909e-18
3848.99921 5.45825e-18
3850.50251 5.52991e-18
3851.99579 5.57753e-18
3853.49909 5.52041e-18
3855.00239 5.70204e-18
3856.49567 5.68803e-18
3857.99897 5.69937e-18
3859.50227 5.71730e-18
3860.99554 6.01129e-18
3862.49884 6.12749e-18
3864.00214 5.83312e-18
3865.49542 5.90082e-18
3866.99872 6.03206e-18
3868.50202 5.94798e-18
3869.99530 6.53614e-18
3871.49860 6.51280e-18
3873.00190 6.02010e-18
3874.49518 6.24689e-18
3875.99848 6.45322e-18
3877.50178 6.61434e-18
3878.99506 6.53256e-18
3880.49836 6.73674e-18
3882.00166 6.93074e-18
3883.50496 6.75206e-18
3884.99823 6.73407e-18
3886.50153 6.93607e-18
3888.00483 7.16604e-18
3889.49811 7.22740e-18
3891.00141 7.19729e-18
3892.50471 7.10980e-18
3893.99799 7.10883e-18
3895.50129 6.87849e-18
3897.00459 7.14705e-18
3898.49787 7.10072e-18
3900.00117 7.07127e-18
3901.50447 7.36340e-18
3902.99775 7.28384e-18
3904.50105 7.18361e-18
3906.00435 7.30795e-18
3907.49762 7.32248e-18
3909.00092 7.30641e-18
3910.50422 7.42319e-18
3911.99750 7.47167e-18
3913.50080 7.30667e-18
3915.00410 7.48563e-18
3916.49738 7.63787e-18
3918.00068 7.26193e-18
3919.50398 7.53560e-18
3920.99726 7.85848e-18
3922.50056 7.64155e-18
3924.00386 7.62105e-18
3925.49714 7.76953e-18
3927.00044 7.85450e-18
3928.50374 8.03258e-18
3929.99701 8.04361e-18
3931.50031 7.91546e-18
3933.00361 7.85406e-18
3934.49689 7.60690e-18
3936.00019 7.70952e-18
3937.50349 8.01479e-18
3938.99677 8.37356e-18
3940.50007 8.51152e-18
3942.00337 8.20294e-18
3943.49665 7.95842e-18
3944.99995 8.01692e-18
3946.50325 8.24079e-18
3947.99653 8.12898e-18
3949.49983 8.36224e-18
3951.00313 8.31137e-18
3952.49640 8.14163e-18
3953.99970 7.93848e-18
3955.50300 8.36215e-18
3956.99628 8.37027e-18
3958.49958 8.41552e-18
3960.00288 8.68920e-18
3961.49616 8.79859e-18
3962.99946 8.83387e-18
3964.50276 8.62485e-18
3965.99604 8.29196e-18
3967.49934 8.26641e-18
3969.00264 8.47072e-18
3970.49592 8.38791e-18
3971.99922 8.46432e-18
3973.50252 8.69974e-18
3974.99579 8.68241e-18
3976.49909 8.50536e-18
3978.00239 8.48237e-18
3979.49567 8.51662e-18
3980.99897 8.61497e-18
3982.50227 8.73463e-18
3983.99555 8.73553e-18
3985.49885 8.75497e-18
3987.00215 8.61548e-18
3988.49543 8.46053e-18
3989.99873 8.57169e-18
3991.50203 8.72533e-18
3992.99531 8.78334e-18
3994.49861 8.70014e-18
3996.00191 8.64331e-18
3997.49518 8.59527e-18
3998.99848 8.47985e-18
4000.50178 8.52947e-18
4001.99506 8.59602e-18
4003.49836 8.56189e-18
4005.00166 8.58907e-18
4006.50496 8.62862e-18
4007.99824 8.65379e-18
4009.50154 8.79843e-18
4011.00484 8.84729e-18
4012.49812 8.76433e-18
4014.00142 8.72814e-18
4015.50472 8.56311e-18
4016.99800 8.69429e-18
4018.50130 8.68922e-18
4020.00460 8.71869e-18
4021.49787 8.56647e-18
4023.00117 8.47042e-18
4024.50447 8.70475e-18
4025.99775 8.64547e-18
4027.50105 8.75968e-18
4029.00435 8.72925e-18
4030.49763 8.47978e-18
4032.00093 8.39638e-18
4033.50423 8.37938e-18
4034.99751 8.29537e-18
4036.50081 8.38270e-18
4038.00411 8.11183e-18
4039.49739 8.39453e-18
4041.00069 8.26784e-18
4042.50399 8.24704e-18
4043.99726 8.05306e-18
4045.50056 7.85407e-18
4047.00386 7.78081e-18
4048.49714 7.88949e-18
4050.00044 8.21022e-18
4051.50374 8.14206e-18
4052.99702 8.08903e-18
4054.50032 8.17622e-18
4056.00362 8.14255e-18
4057.49690 7.98334e-18
4059.00020 8.00199e-18
4060.50350 8.06552e-18
4061.99678 8.26656e-18
4063.50008 8.08090e-18
4065.00338 7.89689e-18
4066.49665 8.17934e-18
4067.99995 8.23965e-18
4069.50325 8.30241e-18
4070.99653 8.29159e-18
4072.49983 8.09567e-18
4074.00313 8.17824e-18
4075.49641 8.05036e-18
4076.99971 8.10961e-18
4078.50301 8.39827e-18
4079.99629 8.07544e-18
4081.49959 8.03156e-18
4083.00289 8.01862e-18
4084.49617 7.84357e-18
4085.99947 7.88467e-18
4087.50277 8.00062e-18
4088.99604 8.26362e-18
4090.49934 8.19663e-18
4092.00264 8.27069e-18
4093.49592 7.96033e-18
4094.99922 8.17168e-18
4096.50252 8.19854e-18
4097.99580 8.13197e-18
4099.49910 7.97669e-18
4101.00240 7.88180e-18
4102.49568 7.83862e-18
4103.99898 7.82323e-18
4105.50228 8.02060e-18
4106.99556 8.09509e-18
4108.49886 7.91427e-18
4110.00216 8.00230e-18
4111.49543 8.10829e-18
4112.99873 8.01980e-18
4114.50203 7.95759e-18
4115.99531 8.21911e-18
4117.49861 8.18951e-18
4119.00191 8.01168e-18
4120.49519 7.99853e-18
4121.99849 8.14080e-18
4123.50179 8.35817e-18
4124.99507 8.28756e-18
4126.49837 8.16199e-18
4128.00167 8.32871e-18
4129.50497 8.39738e-18
4130.99825 8.33297e-18
4132.50155 8.28165e-18
4134.00485 8.19118e-18
4135.49812 8.03951e-18
4137.00142 8.23779e-18
4138.50472 8.26553e-18
4139.99800 8.00942e-18
4141.50130 8.21320e-18
4143.00460 8.41926e-18
4144.49788 8.44935e-18
4146.00118 8.34553e-18
4147.50448 8.48314e-18
4148.99776 8.41157e-18
4150.50106 8.20462e-18
4152.00436 8.19408e-18
4153.49764 8.25254e-18
4155.00094 8.25649e-18
4156.50424 8.52813e-18
4157.99751 8.04020e-18
4159.50081 8.30009e-18
4161.00411 8.44506e-18
4162.49739 8.47726e-18
4164.00069 8.70752e-18
4165.50399 8.45963e-18
4166.99727 8.49902e-18
4168.50057 8.43219e-18
4170.00387 8.60176e-18
4171.49715 8.73499e-18
4173.00045 8.61830e-18
4174.50375 8.55006e-18
4175.99703 8.49512e-18
4177.50033 8.54089e-18
4179.00363 8.62613e-18
4180.49690 8.74236e-18
4182.00020 8.59520e-18
4183.50350 8.41627e-18
4184.99678 8.59741e-18
4186.50008 8.78011e-18
4188.00338 8.76558e-18
4189.49666 8.96571e-18
4190.99996 9.05979e-18
4192.50326 9.02596e-18
4193.99654 8.85041e-18
4195.49984 8.80735e-18
4197.00314 8.77939e-18
4198.49642 8.88909e-18
4199.99972 9.06097e-18
4201.50302 9.13469e-18
4202.99629 8.93945e-18
4204.49959 8.88685e-18
4206.00289 9.09998e-18
4207.49617 9.14507e-18
4208.99947 9.12247e-18
4210.50277 9.19551e-18
4211.99605 9.19179e-18
4213.49935 9.17471e-18
4215.00265 9.09653e-18
4216.49593 9.22718e-18
4217.99923 9.45459e-18
4219.50253 9.48937e-18
4220.99581 9.39129e-18
4222.49911 9.31067e-18
4224.00241 9.27892e-18
4225.49568 9.07364e-18
4226.99898 9.16958e-18
4228.50228 9.59017e-18
4229.99556 9.64503e-18
4231.49886 9.43631e-18
4233.00216 9.60397e-18
4234.49544 9.80599e-18
4235.99874 9.40424e-18
4237.50204 9.33504e-18
4238.99532 9.44461e-18
4240.49862 9.52278e-18
4242.00192 9.63824e-18
4243.49520 9.59529e-18
4244.99850 9.45893e-18
4246.50180 9.55843e-18
4247.99507 9.71073e-18
4249.49837 9.72154e-18
4251.00167 9.55235e-18
4252.50497 9.51581e-18
4253.99825 9.64662e-18
4255.50155 9.63844e-18
4257.00485 9.36407e-18
4258.49813 9.35331e-18
4260.00143 9.64383e-18
4261.50473 9.56445e-18
4262.99801 9.48169e-18
4264.50131 9.60724e-18
4266.00461 9.75591e-18
4267.49789 9.86606e-18
4269.00119 9.82763e-18
4270.50449 9.77605e-18
4271.99776 9.82587e-18
4273.50106 9.77478e-18
4275.00436 9.58841e-18
4276.49764 9.49972e-18
4278.00094 9.64980e-18
4279.50424 9.71448e-18
4280.99752 9.65350e-18
4282.50082 9.91689e-18
4284.00412 1.00644e-17
4285.49740 9.94862e-18
4287.00070 9.78516e-18
4288.50400 9.81558e-18
4289.99728 1.00784e-17
4291.50058 1.02446e-17
4293.00388 1.03922e-17
4294.49715 1.00625e-17
4296.00045 1.00555e-17
4297.50375 1.05508e-17
4298.99703 1.04936e-17
4300.50033 1.01395e-17
4302.00363 1.01961e-17
4303.49691 1.03332e-17
4305.00021 1.04802e-17
4306.50351 1.04660e-17
4307.99679 1.02625e-17
4309.50009 1.01571e-17
4311.00339 1.02382e-17
4312.49667 1.04459e-17
4313.99997 1.05592e-17
4315.50327 1.03546e-17
4316.99654 1.04020e-17
4318.49984 1.05730e-17
4320.00314 1.06132e-17
4321.49642 1.04834e-17
4322.99972 1.06978e-17
4324.50302 1.05013e-17
4325.99630 1.03603e-17
4327.49960 1.04034e-17
4329.00290 1.04517e-17
4330.49618 1.05832e-17
4331.99948 1.06573e-17
4333.50278 1.06103e-17
4334.99606 1.06608e-17
4336.49936 1.04245e-17
4338.00266 1.04864e-17
4339.49593 1.05892e-17
4340.99923 1.03930e-17
4342.50253 1.05466e-17
4343.99581 1.06214e-17
4345.49911 1.05144e-17
4347.00241 1.04459e-17
4348.49569 1.05887e-17
4349.99899 1.06984e-17
4351.50229 1.06038e-17
4352.99557 1.06040e-17
4354.49887 1.07716e-17
4356.00217 1.07084e-17
4357.49545 1.08205e-17
4358.99875 1.07432e-17
4360.50205 1.05787e-17
4361.99532 1.05746e-17
4363.49862 1.07274e-17
4365.00192 1.06088e-17
4366.49520 1.07718e-17
4367.99850 1.07116e-17
4369.50180 1.07252e-17
4370.99508 1.08444e-17
4372.49838 1.07948e-17
4374.00168 1.08001e-17
4375.50498 1.08610e-17
4376.99826 1.08040e-17
4378.50156 1.08317e-17
4380.00486 1.08224e-17
4381.49814 1.08326e-17
4383.00144 1.11566e-17
4384.50474 1.13788e-17
4385.99801 1.13052e-17
4387.50131 1.13772e-17
4389.00461 1.13618e-17
4390.49789 1.12453e-17
4392.00119 1.14374e-17
4393.50449 1.14143e-17
4394.99777 1.12703e-17
4396.50107 1.15569e-17
4398.00437 1.17538e-17
4399.49765 1.17980e-17
4401.00095 1.16857e-17
4402.50425 1.16333e-17
4403.99753 1.17239e-17
4405.50083 1.19661e-17
4407.00413 1.21031e-17
4408.49740 1.19905e-17
4410.00070 1.20180e-17
4411.50400 1.20159e-17
4412.99728 1.19569e-17
4414.50058 1.20861e-17
4416.00388 1.22043e-17
4417.49716 1.22968e-17
4419.00046 1.22539e-17
4420.50376 1.23204e-17
4421.99704 1.23182e-17
4423.50034 1.21390e-17
4425.00364 1.22663e-17
4426.49692 1.24481e-17
4428.00022 1.25712e-17
4429.50352 1.27312e-17
4430.99679 1.27723e-17
4432.50009 1.27675e-17
4434.00339 1.26204e-17
4435.49667 1.25921e-17
4436.99997 1.26329e-17
4438.50327 1.27425e-17
4439.99655 1.29347e-17
4441.49985 1.29512e-17
4443.00315 1.29447e-17
4444.49643 1.30367e-17
4445.99973 1.30285e-17
4447.50303 1.30646e-17
4448.99631 1.36468e-17
4450.49961 1.32553e-17
4452.00291 1.33813e-17
4453.49618 1.36546e-17
4454.99948 1.37005e-17
4456.50278 1.38782e-17
4457.99606 1.38911e-17
4459.49936 1.37486e-17
4461.00266 1.40515e-17
4462.49594 1.42434e-17
4463.99924 1.43943e-17
4465.50254 1.45855e-17
4466.99582 1.45290e-17
4468.49912 1.45367e-17
4470.00242 1.46349e-17
4471.49570 1.46837e-17
4472.99900 1.48084e-17
4474.50230 1.48900e-17
4475.99557 1.49422e-17
4477.49887 1.50501e-17
4479.00217 1.49175e-17
4480.49545 1.48982e-17
4481.99875 1.50528e-17
4483.50205 1.50318e-17
4484.99533 1.52671e-17
4486.49863 1.52920e-17
4488.00193 1.52380e-17
4489.49521 1.54338e-17
4490.99851 1.55196e-17
4492.50181 1.56951e-17
4493.99509 1.58560e-17
4495.49839 1.59722e-17
4497.00169 1.58520e-17
4498.49496 1.58284e-17
4499.99826 1.58623e-17
4501.50156 1.61280e-17
4503.00486 1.61539e-17
4504.49814 1.59516e-17
4506.00144 1.62759e-17
4507.50474 1.62448e-17
4508.99802 1.63077e-17
4510.50132 1.65835e-17
4512.00462 1.65838e-17
4513.49790 1.63805e-17
4515.00120 1.67018e-17
4516.50450 1.65125e-17
4517.99778 1.64675e-17
4519.50108 1.66376e-17
4521.00438 1.67350e-17
4522.49765 1.65465e-17
4524.00095 1.66160e-17
4525.50425 1.64652e-17
4526.99753 1.68122e-17
4528.50083 1.67410e-17
4530.00413 1.68442e-17
4531.49741 1.67390e-17
4533.00071 1.66231e-17
4534.50401 1.66721e-17
4535.99729 1.69597e-17
4537.50059 1.70964e-17
4539.00389 1.71991e-17
4540.49717 1.72660e-17
4542.00047 1.73460e-17
4543.50377 1.72148e-17
4544.99704 1.74665e-17
4546.50034 1.74600e-17
4548.00364 1.74424e-17
4549.49692 1.72978e-17
4551.00022 1.72885e-17
4552.50352 1.73562e-17
4553.99680 1.73915e-17
4555.50010 1.72896e-17
4557.00340 1.73004e-17
4558.49668 1.75638e-17
4559.99998 1.75465e-17
4561.50328 1.73703e-17
4562.99656 1.74541e-17
4564.49986 1.76043e-17
4566.00316 1.76593e-17
4567.49643 1.76234e-17
4568.99973 1.74383e-17
4570.50303 1.73084e-17
4571.99631 1.75159e-17
4573.49961 1.76848e-17
4575.00291 1.76104e-17
4576.49619 1.76348e-17
4577.99949 1.77791e-17
4579.50279 1.75892e-17
4580.99607 1.74359e-17
4582.49937 1.75005e-17
4584.00267 1.75568e-17
4585.49595 1.76020e-17
4586.99925 1.75463e-17
4588.50255 1.75259e-17
4589.99582 1.75645e-17
4591.49912 1.80470e-17
4593.00242 1.80250e-17
4594.49570 1.78967e-17
4595.99900 1.76333e-17
4597.50230 1.75024e-17
4598.99558 1.74541e-17
4600.49888 1.76615e-17
4602.00218 1.76240e-17
4603.49546 1.75379e-17
4604.99876 1.76550e-17
4606.50206 1.76639e-17
4607.99534 1.76940e-17
4609.49864 1.76614e-17
4611.00194 1.74333e-17
4612.49521 1.74729e-17
4613.99851 1.74522e-17
4615.50181 1.74182e-17
4616.99509 1.73871e-17
4618.49839 1.73322e-17
4620.00169 1.71776e-17
4621.49497 1.70331e-17
4622.99827 1.71981e-17
4624.50157 1.72486e-17
4626.00487 1.71149e-17
4627.49815 1.70880e-17
4629.00145 1.70214e-17
4630.50475 1.70447e-17
4631.99803 1.69546e-17
4633.50133 1.68627e-17
4635.00463 1.69221e-17
4636.49790 1.67714e-17
4638.00120 1.65361e-17
4639.50450 1.66363e-17
4640.99778 1.65481e-17
4642.50108 1.63109e-17
4644.00438 1.62465e-17
4645.49766 1.64397e-17
4647.00096 1.63267e-17
4648.50426 1.60902e-17
4649.99754 1.62389e-17
4651.50084 1.64485e-17
4653.00414 1.64619e-17
4654.49742 1.59985e-17
4656.00072 1.57327e-17
4657.50402 1.57035e-17
4658.99729 1.59445e-17
4660.50059 1.58311e-17
4662.00389 1.56011e-17
4663.49717 1.56316e-17
4665.00047 1.54276e-17
4666.50377 1.51901e-17
4667.99705 1.52809e-17
4669.50035 1.51325e-17
4671.00365 1.55190e-17
4672.49693 1.56790e-17
4674.00023 1.51525e-17
4675.50353 1.51976e-17
4676.99681 1.52204e-17
4678.50011 1.50576e-17
4680.00341 1.48998e-17
4681.49668 1.47310e-17
4682.99998 1.47159e-17
4684.50328 1.49690e-17
4685.99656 1.49351e-17
4687.49986 1.45646e-17
4689.00316 1.43919e-17
4690.49644 1.44339e-17
4691.99974 1.43859e-17
4693.50304 1.44464e-17
4694.99632 1.44422e-17
4696.49962 1.43053e-17
4698.00292 1.42552e-17
4699.49620 1.42098e-17
4700.99950 1.41893e-17
4702.50280 1.42269e-17
4703.99607 1.40433e-17
4705.49937 1.37359e-17
4707.00267 1.37932e-17
4708.49595 1.37663e-17
4709.99925 1.35074e-17
4711.50255 1.35988e-17
4712.99583 1.38766e-17
4714.49913 1.38798e-17
4716.00243 1.38028e-17
4717.49571 1.36182e-17
4718.99901 1.34375e-17
4720.50231 1.34301e-17
4721.99559 1.34314e-17
4723.49889 1.33531e-17
4725.00219 1.33635e-17
4726.49546 1.34417e-17
4727.99876 1.33868e-17
4729.50206 1.32097e-17
4730.99534 1.32373e-17
4732.49864 1.33010e-17
4734.00194 1.31204e-17
4735.49522 1.33386e-17
4736.99852 1.33251e-17
4738.50182 1.32222e-17
4739.99510 1.32832e-17
4741.49840 1.32517e-17
4743.00170 1.34239e-17
4744.49498 1.33996e-17
4745.99828 1.30925e-17
4747.50158 1.31473e-17
4749.00488 1.32126e-17
4750.49815 1.31653e-17
4752.00145 1.30746e-17
4753.50475 1.31088e-17
4754.99803 1.31051e-17
4756.50133 1.29541e-17
4758.00463 1.28947e-17
4759.49791 1.28513e-17
4761.00121 1.28045e-17
4762.50451 1.27858e-17
4763.99779 1.27449e-17
4765.50109 1.26949e-17
4767.00439 1.27690e-17
4768.49767 1.27541e-17
4770.00097 1.26759e-17
4771.50427 1.26610e-17
4772.99754 1.26270e-17
4774.50084 1.26652e-17
4776.00414 1.25984e-17
4777.49742 1.25570e-17
4779.00072 1.26083e-17
4780.50402 1.28854e-17
4781.99730 1.29867e-17
4783.50060 1.27549e-17
4785.00390 1.27594e-17
4786.49718 1.28123e-17
4788.00048 1.26519e-17
4789.50378 1.28328e-17
4790.99706 1.30090e-17
4792.50036 1.29097e-17
4794.00366 1.29407e-17
4795.49693 1.29531e-17
4797.00023 1.30713e-17
4798.50353 1.29768e-17
4799.99681 1.32333e-17
4801.50011 1.32877e-17
4803.00341 1.31097e-17
4804.49669 1.32682e-17
4805.99999 1.32778e-17
4807.50329 1.33805e-17
4808.99657 1.35331e-17
4810.49987 1.33558e-17
4812.00317 1.33051e-17
4813.49645 1.31925e-17
4814.99975 1.33968e-17
4816.50305 1.35358e-17
4817.99632 1.37137e-17
4819.49962 1.35951e-17
4821.00292 1.33042e-17
4822.49620 1.34030e-17
4823.99950 1.34954e-17
4825.50280 1.35792e-17
4826.99608 1.34103e-17
4828.49938 1.32584e-17
4830.00268 1.33062e-17
4831.49596 1.34514e-17
4832.99926 1.34110e-17
4834.50256 1.33613e-17
4835.99584 1.33526e-17
4837.49914 1.31070e-17
4839.00244 1.30804e-17
4840.49571 1.33222e-17
4841.99901 1.35399e-17
4843.50231 1.34533e-17
4844.99559 1.33437e-17
4846.49889 1.34180e-17
4848.00219 1.33663e-17
4849.49547 1.33212e-17
4850.99877 1.32758e-17
4852.50207 1.31672e-17
4853.99535 1.31576e-17
4855.49865 1.31715e-17
4857.00195 1.32024e-17
4858.49523 1.31518e-17
4859.99853 1.30173e-17
4861.50183 1.29862e-17
4862.99510 1.30680e-17
4864.49840 1.30054e-17
4866.00170 1.30222e-17
4867.49498 1.32938e-17
4868.99828 1.33133e-17
4870.50158 1.32468e-17
4872.00488 1.32443e-17
4873.49816 1.32754e-17
4875.00146 1.35469e-17
4876.50476 1.36852e-17
4877.99804 1.36836e-17
4879.50134 1.35045e-17
4881.00464 1.34683e-17
4882.49792 1.36271e-17
4884.00122 1.37055e-17
4885.50452 1.37961e-17
4886.99779 1.36572e-17
4888.50109 1.37109e-17
4890.00439 1.36518e-17
4891.49767 1.37970e-17
4893.00097 1.39316e-17
4894.50427 1.37508e-17
4895.99755 1.37602e-17
4897.50085 1.37220e-17
4899.00415 1.37306e-17
4900.49743 1.37055e-17
4902.00073 1.39348e-17
4903.50403 1.39995e-17
4904.99731 1.42136e-17
4906.50061 1.41840e-17
4908.00391 1.39412e-17
4909.49718 1.38687e-17
4911.00048 1.39824e-17
4912.50378 1.39290e-17
4913.99706 1.38813e-17
4915.50036 1.38382e-17
4917.00366 1.37494e-17
4918.49694 1.37651e-17
4920.00024 1.38476e-17
4921.50354 1.39455e-17
4922.99682 1.38323e-17
4924.50012 1.36787e-17
4926.00342 1.37271e-17
4927.49670 1.37285e-17
4929.00000 1.36808e-17
4930.50330 1.37943e-17
4931.99657 1.38541e-17
4933.49987 1.39390e-17
4935.00317 1.39246e-17
4936.49645 1.38645e-17
4937.99975 1.39434e-17
4939.50305 1.39149e-17
4940.99633 1.39480e-17
4942.49963 1.39092e-17
4944.00293 1.38303e-17
4945.49621 1.38668e-17
4946.99951 1.39842e-17
4948.50281 1.39175e-17
4949.99609 1.41459e-17
4951.49939 1.38129e-17
4953.00269 1.38794e-17
4954.49596 1.42362e-17
4955.99926 1.41843e-17
4957.50256 1.38428e-17
4958.99584 1.36651e-17
4960.49914 1.36878e-17
4962.00244 1.38382e-17
4963.49572 1.38949e-17
4964.99902 1.38361e-17
4966.50232 1.37817e-17
4967.99560 1.37340e-17
4969.49890 1.38442e-17
4971.00220 1.38100e-17
4972.49548 1.38140e-17
4973.99878 1.37285e-17
4975.50208 1.34955e-17
4976.99535 1.34777e-17
4978.49865 1.35906e-17
4980.00195 1.36791e-17
4981.49523 1.37236e-17
4982.99853 1.36624e-17
4984.50183 1.34535e-17
4985.99511 1.34309e-17
4987.49841 1.34612e-17
4989.00171 1.34969e-17
4990.49499 1.36068e-17
4991.99829 1.36882e-17
4993.50159 1.38172e-17
4995.00489 1.37645e-17
4996.49817 1.34682e-17
4998.00147 1.34535e-17
4999.50477 1.34545e-17
5000.99804 1.33375e-17
5002.50134 1.33795e-17
5004.00464 1.33827e-17
5005.49792 1.33298e-17
5007.00122 1.33092e-17
5008.50452 1.33481e-17
5009.99780 1.34599e-17
5011.50110 1.33070e-17
5013.00440 1.33062e-17
5014.49768 1.33764e-17
5016.00098 1.34790e-17
5017.50428 1.33125e-17
5018.99756 1.35232e-17
5020.50086 1.35730e-17
