# wavelength flux
3300.00407 1.65096e-17
3301.99845 1.23922e-17
3304.00285 -3.91858e-18
3305.99723 -5.74383e-18
3308.00163 1.80183e-18
3309.99601 3.05137e-19
3312.00041 -1.02481e-18
3314.00481 -2.05165e-18
3315.99918 -8.04232e-19
3318.00358 -3.65220e-18
3319.99796 -9.60997e-18
3322.00236 -4.18800e-19
3323.99674 7.59993e-18
3326.00114 1.62877e-17
3327.99552 3.82593e-18
3329.99992 2.13610e-18
3332.00432 6.79176e-18
3333.99870 3.71293e-18
3336.00310 -3.43139e-18
3337.99747 -5.66577e-19
3340.00187 4.65996e-18
3341.99625 1.31033e-18
3344.00065 1.09842e-18
3346.00505 1.14667e-17
3347.99943 7.16074e-18
3350.00383 1.56488e-18
3351.99821 3.68247e-18
3354.00261 7.37144e-18
3355.99699 1.18108e-17
3358.00139 1.11721e-17
3359.99576 3.30252e-18
3362.00016 1.02630e-17
3364.00456 -2.85888e-18
3365.99894 3.32495e-18
3368.00334 3.79919e-18
3369.99772 8.57823e-18
3372.00212 8.97801e-18
3373.99650 4.93034e-18
3376.00090 1.76177e-19
3377.99528 4.72530e-19
3379.99968 3.27272e-18
3382.00408 2.80177e-18
3383.99845 -1.97378e-18
3386.00285 4.28608e-19
3387.99723 8.50891e-18
3390.00163 8.97868e-18
3391.99601 4.53783e-18
3394.00041 2.62049e-18
3396.00481 -4.56235e-18
3397.99919 4.96711e-18
3400.00359 8.24436e-18
3401.99797 8.38813e-18
3404.00237 4.49838e-18
3405.99674 -2.68031e-18
3408.00114 -2.16628e-18
3409.99552 7.84877e-18
3411.99992 8.80530e-18
3414.00432 4.60111e-18
3415.99870 -1.53991e-18
3418.00310 7.46149e-18
3419.99748 1.09630e-17
3422.00188 6.32137e-18
3423.99626 1.45175e-18
3426.00066 6.69661e-18
3427.99503 5.20754e-18
3429.99943 2.13135e-18
3432.00383 4.83994e-18
3433.99821 2.67711e-18
3436.00261 9.18741e-19
3437.99699 9.21766e-18
3440.00139 9.44730e-18
3441.99577 2.29957e-19
3444.00017 -3.51303e-18
3446.00457 -2.42927e-18
3447.99895 -5.73843e-18
3450.00335 4.69475e-19
3451.99772 5.41890e-18
3454.00212 2.37912e-18
3455.99650 -7.35259e-19
3458.00090 4.07437e-18
3459.99528 3.75881e-19
3461.99968 3.68333e-18
3464.00408 1.07614e-17
3465.99846 7.60294e-18
3468.00286 6.54898e-18
3469.99724 7.58821e-18
3472.00164 4.27981e-18
3473.99601 7.10598e-19
3476.00041 3.61962e-18
3478.00481 2.00671e-18
3479.99919 3.47506e-20
3482.00359 2.09181e-18
3483.99797 3.55607e-18
3486.00237 5.09738e-18
3487.99675 1.21533e-18
3490.00115 2.45576e-18
3491.99553 3.82364e-18
3493.99993 4.15271e-18
3496.00433 5.66664e-18
3497.99870 3.58181e-18
3500.00310 -2.98249e-18
3501.99748 1.25138e-18
3504.00188 1.79208e-18
3505.99626 1.21760e-18
3508.00066 1.04291e-18
3509.99504 -6.75273e-19
3511.99944 3.68581e-18
3514.00384 3.43355e-18
3515.99822 2.86910e-19
3518.00262 -3.74794e-19
3519.99699 5.47461e-18
3522.00139 3.32295e-18
3523.99577 2.14255e-18
3526.00017 1.24555e-18
3528.00457 2.94019e-18
3529.99895 5.74313e-18
3532.00335 3.99677e-18
3533.99773 3.68757e-18
3536.00213 1.35775e-18
3537.99651 1.63330e-18
3540.00091 3.24888e-18
3541.99528 3.10044e-18
3543.99968 2.54258e-18
3546.00408 -2.93634e-19
3547.99846 -1.37983e-19
3550.00286 4.76982e-18
3551.99724 4.86786e-18
3554.00164 2.28476e-18
3555.99602 3.11788e-18
3558.00042 1.69762e-18
3560.00482 3.36126e-18
3561.99920 4.24412e-18
3564.00360 1.79597e-18
3565.99797 2.29918e-18
3568.00237 4.09418e-18
3569.99675 -3.31984e-20
3572.00115 8.44677e-18
3573.99553 6.58919e-18
3575.99993 1.22958e-18
3578.00433 -1.04084e-18
3579.99871 1.97510e-19
3582.00311 6.08271e-18
3583.99749 1.41237e-18
3586.00189 2.48246e-18
3587.99626 3.77303e-18
3590.00066 3.46679e-18
3591.99504 -2.17597e-19
3593.99944 3.28597e-19
3596.00384 -8.18831e-20
3597.99822 -1.36484e-18
3600.00262 3.43617e-19
3601.99700 3.82268e-18
3604.00140 1.31586e-18
3605.99578 9.38342e-19
3608.00018 2.86424e-18
3610.00458 6.17432e-19
3611.99895 7.44231e-19
3614.00335 3.33592e-18
3615.99773 2.52121e-18
3618.00213 2.10421e-18
3619.99651 2.78070e-18
3622.00091 -3.13115e-19
3623.99529 6.75657e-18
3625.99969 6.75587e-18
3628.00409 5.25333e-18
3629.99847 3.89055e-18
3632.00287 1.95172e-18
3633.99724 5.10751e-18
3636.00164 3.76712e-18
3637.99602 2.35682e-18
3640.00042 1.91977e-18
3642.00482 3.36081e-18
3643.99920 3.51127e-18
3646.00360 3.66167e-18
3647.99798 3.81202e-18
3650.00238 3.96232e-18
3651.99676 4.11258e-18
3654.00116 4.26279e-18
3655.99553 4.41296e-18
3657.99993 4.56307e-18
3660.00433 4.71313e-18
3661.99871 4.86315e-18
3664.00311 5.01312e-18
3665.99749 5.16305e-18
3668.00189 5.31293e-18
3669.99627 5.46277e-18
3672.00067 5.61256e-18
3673.99505 4.91634e-18
3675.99945 1.23832e-18
3678.00385 2.83348e-18
3679.99822 6.40782e-18
3682.00262 2.81383e-18
3683.99700 3.62174e-18
3686.00140 5.46555e-18
3687.99578 6.21264e-18
3690.00018 6.07800e-18
3692.00458 4.08535e-18
3693.99896 2.31116e-18
3696.00336 4.99068e-18
3697.99774 6.48857e-18
3700.00214 5.86672e-18
3701.99651 4.25996e-18
3704.00091 5.34916e-18
3705.99529 4.32544e-18
3707.99969 4.56848e-18
3710.00409 4.88199e-18
3711.99847 2.60259e-18
3714.00287 3.44397e-18
3715.99725 3.99532e-18
3718.00165 4.47830e-18
3719.99603 4.69627e-18
3722.00043 3.81146e-18
3724.00483 3.74742e-18
3725.99920 5.09671e-18
3728.00360 4.91352e-18
3729.99798 2.53571e-18
3732.00238 3.08749e-18
3733.99676 4.66887e-18
3736.00116 4.59301e-18
3737.99554 2.83490e-18
3739.99994 3.61701e-18
3742.00434 2.86169e-18
3743.99872 2.81187e-18
3746.00312 3.25638e-18
3747.99749 3.83607e-18
3750.00189 3.72466e-18
3751.99627 4.04753e-18
3754.00067 3.67154e-18
3755.99505 5.25922e-18
3757.99945 5.92887e-18
3760.00385 3.79709e-18
3761.99823 3.37007e-18
3764.00263 2.30102e-18
3765.99701 3.61016e-18
3768.00141 3.44250e-18
3769.99578 3.69281e-18
3772.00018 5.34404e-18
3774.00458 5.50559e-18
3775.99896 2.53259e-18
3778.00336 1.36629e-18
3779.99774 2.42649e-18
3782.00214 4.92806e-18
3783.99652 3.77541e-18
3786.00092 2.90610e-18
3787.99530 3.91756e-18
3789.99970 3.93358e-18
3792.00410 4.81481e-18
3793.99847 3.28114e-18
3796.00287 3.70769e-18
3797.99725 4.23820e-18
3800.00165 4.35931e-18
3801.99603 5.42375e-18
3804.00043 5.32553e-18
3806.00483 8.19019e-18
3807.99921 2.28415e-18
3810.00361 3.05514e-18
3811.99799 5.57534e-18
3814.00239 3.16021e-18
3815.99676 2.17319e-18
3818.00116 3.24811e-18
3819.99554 4.19901e-18
3821.99994 4.76983e-18
3824.00434 6.83842e-18
3825.99872 3.59625e-18
3828.00312 3.62812e-18
3829.99750 4.18691e-18
3832.00190 3.29341e-18
3833.99628 3.95677e-18
3836.00068 4.53568e-18
3837.99505 4.01274e-18
3839.99945 4.18081e-18
3842.00385 5.39757e-18
3843.99823 3.37120e-18
3846.00263 4.89278e-18
3847.99701 5.85098e-18
3850.00141 4.24963e-18
3851.99579 6.58550e-18
3854.00019 6.46201e-18
3856.00459 6.66434e-18
3857.99897 6.90962e-18
3860.00337 5.74603e-18
3861.99774 4.92789e-18
3864.00214 5.42890e-18
3865.99652 5.65976e-18
3868.00092 6.21299e-18
3869.99530 5.78523e-18
3871.99970 5.88391e-18
3874.00410 5.71044e-18
3875.99848 4.91362e-18
3878.00288 5.96927e-18
3879.99726 5.91919e-18
3882.00166 6.05298e-18
3883.99603 6.81077e-18
3886.00043 8.55906e-18
3888.00483 6.61354e-18
3889.99921 5.48318e-18
3892.00361 5.31542e-18
3893.99799 6.50106e-18
3896.00239 8.44791e-18
3897.99677 6.07691e-18
3900.00117 5.90035e-18
3901.99555 4.63064e-18
3903.99995 4.78316e-18
3906.00435 8.31224e-18
3907.99872 7.16015e-18
3910.00312 7.91517e-18
3911.99750 9.33365e-18
3914.00190 7.37120e-18
3915.99628 6.51428e-18
3918.00068 7.04051e-18
3920.00508 5.91932e-18
3921.99946 8.28340e-18
3924.00386 7.64879e-18
3925.99824 8.74846e-18
3928.00264 6.77510e-18
3929.99701 6.58526e-18
3932.00141 7.89452e-18
3933.99579 7.53969e-18
3936.00019 7.50152e-18
3938.00459 6.24360e-18
3939.99897 7.49279e-18
3942.00337 9.27015e-18
3943.99775 9.86793e-18
3946.00215 7.17521e-18
3947.99653 7.98644e-18
3950.00093 7.64480e-18
3951.99530 6.41379e-18
3953.99970 7.18602e-18
3956.00410 8.19054e-18
3957.99848 7.93186e-18
3960.00288 8.05355e-18
3961.99726 9.85549e-18
3964.00166 8.47683e-18
3965.99604 5.53496e-18
3968.00044 6.88640e-18
3970.00484 6.74433e-18
3971.99922 9.49650e-18
3974.00362 8.17365e-18
3975.99799 8.30772e-18
3978.00239 8.93649e-18
3979.99677 9.27716e-18
3982.00117 8.19943e-18
3983.99555 6.56405e-18
3985.99995 7.07249e-18
3988.00435 8.63087e-18
3989.99873 7.88205e-18
3992.00313 6.48839e-18
3993.99751 6.43192e-18
3996.00191 8.29107e-18
3997.99628 9.22892e-18
4000.00068 6.92415e-18
4001.99506 5.35349e-18
4003.99946 7.00284e-18
4006.00386 8.45845e-18
4007.99824 9.45584e-18
4010.00264 1.04533e-17
4011.99702 7.93716e-18
4014.00142 8.29418e-18
4015.99580 9.28249e-18
4018.00020 9.00266e-18
4020.00460 9.85718e-18
4021.99897 9.51898e-18
4024.00337 9.25124e-18
4025.99775 7.83427e-18
4028.00215 8.34882e-18
4029.99653 8.69328e-18
4032.00093 8.35939e-18
4033.99531 1.03389e-17
4035.99971 9.18045e-18
4038.00411 7.73644e-18
4039.99849 7.18948e-18
4042.00289 6.64259e-18
4043.99726 6.09582e-18
4046.00166 5.54916e-18
4047.99604 5.00262e-18
4050.00044 5.00210e-18
4052.00484 5.31698e-18
4053.99922 7.73668e-18
4056.00362 7.40841e-18
4057.99800 9.89752e-18
4060.00240 8.70417e-18
4061.99678 6.84198e-18
4064.00118 7.78085e-18
4065.99555 7.77612e-18
4067.99995 8.25004e-18
4070.00435 9.54913e-18
4071.99873 8.66932e-18
4074.00313 6.64314e-18
4075.99751 7.53839e-18
4078.00191 9.73236e-18
4079.99629 6.70772e-18
4082.00069 6.40473e-18
4083.99507 6.07060e-18
4085.99947 9.32177e-18
4088.00387 9.32059e-18
4089.99824 7.98511e-18
4092.00264 8.08279e-18
4093.99702 6.69735e-18
4096.00142 7.70705e-18
4097.99580 6.18808e-18
4100.00020 5.17570e-18
4102.00460 7.87802e-18
4103.99898 8.33568e-18
4106.00338 9.22621e-18
4107.99776 7.56901e-18
4110.00216 6.19117e-18
4111.99653 7.00018e-18
4114.00093 5.84002e-18
4115.99531 8.49512e-18
4117.99971 9.26840e-18
4120.00411 7.98863e-18
4121.99849 7.97164e-18
4124.00289 8.05972e-18
4125.99727 7.70930e-18
4128.00167 7.12781e-18
4129.99605 6.55379e-18
4132.00045 7.69526e-18
4134.00485 7.79608e-18
4135.99922 5.83761e-18
4138.00362 5.41354e-18
4139.99800 5.92321e-18
4142.00240 5.53610e-18
4143.99678 5.84479e-18
4146.00118 6.40607e-18
4147.99556 4.79446e-18
4149.99996 4.81051e-18
4152.00436 6.42438e-18
4153.99874 6.81345e-18
4156.00314 7.40751e-18
4157.99751 8.83623e-18
4160.00191 8.64164e-18
4161.99629 8.35255e-18
4164.00069 8.75890e-18
4165.99507 9.71522e-18
4167.99947 8.08790e-18
4170.00387 7.97467e-18
4171.99825 8.92643e-18
4174.00265 8.03055e-18
4175.99703 6.51815e-18
4178.00143 6.64620e-18
4179.99580 6.91743e-18
4182.00020 6.43433e-18
4184.00460 7.03055e-18
4185.99898 7.70820e-18
4188.00338 6.34510e-18
4189.99776 8.59321e-18
4192.00216 7.41296e-18
4193.99654 6.82351e-18
4196.00094 7.54092e-18
4197.99532 7.72651e-18
4199.99972 7.08577e-18
4202.00412 5.95481e-18
4203.99849 6.36384e-18
4206.00289 6.34590e-18
4207.99727 7.24832e-18
4210.00167 6.49720e-18
4211.99605 7.63409e-18
4214.00045 8.26523e-18
4216.00485 7.90480e-18
4217.99923 7.89413e-18
4220.00363 6.57187e-18
4221.99801 6.56517e-18
4224.00241 6.22713e-18
4225.99678 6.81671e-18
4228.00118 6.34086e-18
4229.99556 6.02707e-18
4231.99996 6.05302e-18
4234.00436 7.05510e-18
4235.99874 6.88960e-18
4238.00314 7.42138e-18
4239.99752 6.86515e-18
4242.00192 5.53945e-18
4243.99630 5.49267e-18
4246.00070 8.45022e-18
4247.99507 1.10700e-17
4249.99947 9.51113e-18
4252.00387 7.73461e-18
4253.99825 8.75377e-18
4256.00265 9.01681e-18
4257.99703 7.73292e-18
4260.00143 7.81611e-18
4261.99581 8.46465e-18
4264.00021 7.50076e-18
4266.00461 7.19234e-18
4267.99899 6.85619e-18
4270.00339 6.89360e-18
4271.99776 6.86953e-18
4274.00216 7.91510e-18
4275.99654 8.20919e-18
4278.00094 7.94580e-18
4279.99532 7.27129e-18
4281.99972 7.05700e-18
4284.00412 7.06515e-18
4285.99850 6.49604e-18
4288.00290 7.76506e-18
4289.99728 9.28743e-18
4292.00168 8.80189e-18
4293.99605 6.92669e-18
4296.00045 7.87250e-18
4297.99483 9.54718e-18
4299.99923 8.91768e-18
4302.00363 7.22704e-18
4303.99801 7.50323e-18
4306.00241 7.78247e-18
4307.99679 6.82570e-18
4310.00119 5.99046e-18
4311.99557 6.09688e-18
4313.99997 7.58666e-18
4316.00437 8.40177e-18
4317.99874 8.51505e-18
4320.00314 8.15525e-18
4321.99752 7.59688e-18
4324.00192 6.66057e-18
4325.99630 7.83569e-18
4328.00070 8.11214e-18
4330.00510 8.25200e-18
4331.99948 8.76263e-18
4334.00388 8.72313e-18
4335.99826 8.00370e-18
4338.00266 7.80645e-18
4339.99703 8.77746e-18
4342.00143 6.78301e-18
4343.99581 7.56846e-18
4346.00021 5.65152e-18
4348.00461 7.49139e-18
4349.99899 9.65130e-18
4352.00339 9.53360e-18
4353.99777 9.41585e-18
4356.00217 9.29813e-18
4357.99655 9.18051e-18
4360.00095 9.06284e-18
4361.99532 8.94527e-18
4363.99972 8.94426e-18
4366.00412 6.72129e-18
4367.99850 8.27880e-18
4370.00290 9.90846e-18
4371.99728 9.87327e-18
4374.00168 9.51219e-18
4375.99606 8.87950e-18
4378.00046 7.62276e-18
4380.00486 6.97436e-18
4381.99924 7.84147e-18
4384.00364 9.08561e-18
4385.99801 1.05512e-17
4388.00241 9.15110e-18
4389.99679 8.31029e-18
4392.00119 9.26170e-18
4393.99557 9.95630e-18
4395.99997 9.33118e-18
4398.00437 8.39028e-18
4399.99875 9.16193e-18
4402.00315 9.98303e-18
4403.99753 1.05960e-17
4406.00193 9.70048e-18
4407.99630 9.20201e-18
4410.00070 9.00568e-18
4411.99508 9.39205e-18
4413.99948 9.77442e-18
4416.00388 1.01875e-17
4417.99826 8.82462e-18
4420.00266 8.92269e-18
4421.99704 1.02732e-17
4424.00144 9.60904e-18
4425.99582 9.66830e-18
4428.00022 1.03716e-17
4430.00462 9.89959e-18
4431.99899 9.40358e-18
4434.00339 9.75385e-18
4435.99777 1.04121e-17
4438.00217 9.51057e-18
4439.99655 1.08073e-17
4442.00095 1.04183e-17
4443.99533 1.03129e-17
4445.99973 1.07395e-17
4448.00413 1.06488e-17
4449.99851 1.00021e-17
4452.00291 9.11127e-18
4453.99728 8.27974e-18
4456.00168 8.32983e-18
4457.99606 8.95302e-18
4460.00046 1.02959e-17
4462.00486 1.04324e-17
4463.99924 1.05294e-17
4466.00364 9.75480e-18
4467.99802 9.92058e-18
4470.00242 1.13564e-17
4471.99680 1.17478e-17
4474.00120 1.10797e-17
4475.99557 1.13432e-17
4477.99997 1.14220e-17
4480.00437 1.23343e-17
4481.99875 1.27933e-17
4484.00315 1.43384e-17
4485.99753 1.30060e-17
4488.00193 1.21657e-17
4489.99631 1.26987e-17
4492.00071 1.28650e-17
4493.99509 1.22368e-17
4495.99949 1.26776e-17
4498.00389 1.35376e-17
4499.99826 1.33648e-17
4502.00266 1.33436e-17
4503.99704 1.38162e-17
4506.00144 1.37764e-17
4507.99582 1.38132e-17
4510.00022 1.38447e-17
4512.00462 1.44116e-17
4513.99900 1.41402e-17
4516.00340 1.40935e-17
4517.99778 1.44893e-17
4520.00218 1.58090e-17
4521.99655 1.54614e-17
4524.00095 1.34847e-17
4525.99533 1.36851e-17
4527.99973 1.33112e-17
4530.00413 1.44437e-17
4531.99851 1.42920e-17
4534.00291 1.43251e-17
4535.99729 1.44782e-17
4538.00169 1.38883e-17
4539.99607 1.55496e-17
4542.00047 1.56450e-17
4543.99484 1.43007e-17
4545.99924 1.56558e-17
4548.00364 1.59336e-17
4549.99802 1.51209e-17
4552.00242 1.51916e-17
4553.99680 1.57181e-17
4556.00120 1.55981e-17
4557.99558 1.55934e-17
4559.99998 1.55389e-17
4562.00438 1.53213e-17
4563.99876 1.47363e-17
4566.00316 1.55057e-17
4567.99753 1.59969e-17
4570.00193 1.57868e-17
4571.99631 1.59194e-17
4574.00071 1.54601e-17
4576.00511 1.46899e-17
4577.99949 1.57556e-17
4580.00389 1.59426e-17
4581.99827 1.54673e-17
4584.00267 1.56237e-17
4585.99705 1.61193e-17
4588.00145 1.72867e-17
4589.99582 1.59317e-17
4592.00022 1.60376e-17
4594.00462 1.68292e-17
4595.99900 1.67696e-17
4598.00340 1.70464e-17
4599.99778 1.64065e-17
4602.00218 1.58451e-17
4603.99656 1.60447e-17
4606.00096 1.53675e-17
4607.99534 1.59603e-17
4609.99974 1.63571e-17
4612.00414 1.71079e-17
4613.99851 1.60517e-17
4616.00291 1.55747e-17
4617.99729 1.64033e-17
4620.00169 1.66006e-17
4621.99607 1.61670e-17
4624.00047 1.57230e-17
4626.00487 1.65320e-17
4627.99925 1.57566e-17
4630.00365 1.53626e-17
4631.99803 1.52860e-17
4634.00243 1.54506e-17
4635.99680 1.52049e-17
4638.00120 1.57149e-17
4639.99558 1.63424e-17
4641.99998 1.46804e-17
4644.00438 1.42093e-17
4645.99876 1.52499e-17
4648.00316 1.53706e-17
4649.99754 1.51980e-17
4652.00194 1.47728e-17
4653.99632 1.61427e-17
4656.00072 1.55387e-17
4657.99509 1.40068e-17
4659.99949 1.38828e-17
4662.00389 1.39552e-17
4663.99827 1.23966e-17
4666.00267 1.32913e-17
4667.99705 1.26904e-17
4670.00145 1.25094e-17
4671.99583 1.40474e-17
4674.00023 1.45703e-17
4676.00463 1.43509e-17
4677.99901 1.44990e-17
4680.00341 1.46243e-17
4681.99778 1.46501e-17
4684.00218 1.31084e-17
4685.99656 1.29704e-17
4688.00096 1.38345e-17
4689.99534 1.31911e-17
4691.99974 1.37661e-17
4694.00414 1.33402e-17
4695.99852 1.29809e-17
4698.00292 1.27234e-17
4699.99730 1.22045e-17
4702.00170 1.20217e-17
4703.99607 1.23615e-17
4706.00047 1.26545e-17
4708.00487 1.30541e-17
4709.99925 1.34722e-17
4712.00365 1.29992e-17
4713.99803 1.22818e-17
4716.00243 1.25098e-17
4717.99681 1.32066e-17
4720.00121 1.25894e-17
4721.99559 1.20941e-17
4723.99999 1.28428e-17
4726.00439 1.25515e-17
4727.99876 1.24889e-17
4730.00316 1.15350e-17
4731.99754 1.14808e-17
4734.00194 1.14144e-17
4735.99632 1.10131e-17
4738.00072 1.17816e-17
4739.99510 1.03205e-17
4741.99950 1.20616e-17
4744.00390 1.20695e-17
4745.99828 1.11965e-17
4748.00268 1.21886e-17
4749.99705 1.17849e-17
4752.00145 1.14230e-17
4753.99583 1.24461e-17
4756.00023 1.22230e-17
4758.00463 1.24360e-17
4759.99901 1.34218e-17
4762.00341 1.37101e-17
4763.99779 1.21869e-17
4766.00219 1.14736e-17
4767.99657 1.16817e-17
4770.00097 1.16505e-17
4771.99534 1.21172e-17
4773.99974 1.21049e-17
4776.00414 1.22644e-17
4777.99852 1.19658e-17
4780.00292 1.21466e-17
4781.99730 1.24804e-17
4784.00170 1.15960e-17
4785.99608 1.13893e-17
4788.00048 1.16956e-17
4789.99486 1.28593e-17
4791.99926 1.25185e-17
4794.00366 1.15212e-17
4795.99803 1.22464e-17
4798.00243 1.18803e-17
4799.99681 1.16777e-17
4802.00121 1.06318e-17
4803.99559 1.14073e-17
4805.99999 1.20503e-17
4808.00439 1.13167e-17
4809.99877 1.17453e-17
4812.00317 1.24973e-17
4813.99755 1.24500e-17
4816.00195 1.30012e-17
4817.99632 1.21272e-17
4820.00072 1.11266e-17
4822.00512 1.18544e-17
4823.99950 1.18637e-17
4826.00390 1.18168e-17
4827.99828 1.25272e-17
4830.00268 1.27558e-17
4831.99706 1.22153e-17
4834.00146 1.19626e-17
4835.99584 1.22529e-17
4838.00024 1.26076e-17
4840.00464 1.31483e-17
4841.99901 1.34311e-17
4844.00341 1.30234e-17
4845.99779 1.27727e-17
4848.00219 1.28191e-17
4849.99657 1.28056e-17
4852.00097 1.26892e-17
4853.99535 1.39852e-17
4855.99975 1.24062e-17
4858.00415 1.26976e-17
4859.99853 1.27314e-17
4862.00293 1.33858e-17
4863.99730 1.31189e-17
4866.00170 1.31633e-17
4867.99608 1.29455e-17
4870.00048 1.26942e-17
4872.00488 1.34867e-17
4873.99926 1.31798e-17
4876.00366 1.26048e-17
4877.99804 1.26316e-17
4880.00244 1.34119e-17
4881.99682 1.34546e-17
4884.00122 1.24959e-17
4885.99559 1.27486e-17
4887.99999 1.31041e-17
4890.00439 1.32802e-17
4891.99877 1.26516e-17
4894.00317 1.26761e-17
4895.99755 1.33695e-17
4898.00195 1.29044e-17
4899.99633 1.25478e-17
4902.00073 1.30054e-17
4903.99511 1.22580e-17
4905.99951 1.13498e-17
4908.00391 1.14361e-17
4909.99828 1.21203e-17
4912.00268 1.26590e-17
4913.99706 1.20954e-17
4916.00146 1.25513e-17
4917.99584 1.22523e-17
4920.00024 1.13912e-17
4922.00464 1.21480e-17
4923.99902 1.27277e-17
4926.00342 1.27032e-17
4927.99780 1.22948e-17
4930.00220 1.17920e-17
4931.99657 1.17384e-17
4934.00097 1.19473e-17
4935.99535 1.06717e-17
4937.99975 1.01271e-17
4940.00415 1.10836e-17
4941.99853 1.24333e-17
4944.00293 1.19847e-17
4945.99731 1.13006e-17
4948.00171 1.16048e-17
4949.99609 1.18003e-17
4952.00049 1.19462e-17
4953.99486 1.22938e-17
4955.99926 1.21061e-17
4958.00366 1.16375e-17
4959.99804 1.12930e-17
4962.00244 1.15539e-17
4963.99682 1.18816e-17
4966.00122 1.16182e-17
4967.99560 1.18974e-17
4970.00000 1.15803e-17
4972.00440 1.14900e-17
4973.99878 1.11904e-17
4976.00318 1.07410e-17
4977.99755 1.03323e-17
4980.00195 1.12606e-17
4981.99633 1.20157e-17
4984.00073 1.17298e-17
4985.99511 1.14440e-17
4987.99951 1.11582e-17
4990.00391 1.08725e-17
4991.99829 1.05869e-17
4994.00269 1.03013e-17
4995.99707 1.03000e-17
4998.00147 1.09976e-17
4999.99584 1.05208e-17
5002.00024 1.06128e-17
5004.00464 1.14042e-17
5005.99902 1.09307e-17
5008.00342 1.04807e-17
5009.99780 1.07896e-17
5012.00220 1.07586e-17
5013.99658 1.03659e-17
5016.00098 1.09625e-17
5017.99536 1.15123e-17
5019.99976 1.13265e-17
5022.00416 1.12551e-17
5023.99853 1.05178e-17
5026.00293 1.01400e-17
5027.99731 9.87686e-18
5030.00171 1.11347e-17
5031.99609 1.15840e-17
