# wavelength flux
3719.99538 1.05828e-17
3721.50320 1.34339e-17
3723.00084 1.41717e-17
3724.49848 1.34566e-17
3725.99611 1.29202e-17
3727.50394 1.10512e-17
3729.00157 1.18451e-17
3730.49921 1.32926e-17
3731.99684 1.26413e-17
3733.50467 1.19390e-17
3735.00230 1.04139e-17
3736.49994 9.99550e-18
3737.99758 1.11833e-17
3739.49521 1.32750e-17
3741.00304 1.30813e-17
3742.50067 1.25036e-17
3743.99831 1.26648e-17
3745.49594 1.28797e-17
3747.00377 1.29434e-17
3748.50140 1.24070e-17
3749.99904 1.24333e-17
3751.49668 1.33701e-17
3753.00450 1.25962e-17
3754.50214 1.20775e-17
3755.99977 1.20103e-17
3757.49741 1.15759e-17
3758.99504 1.30766e-17
3760.50287 1.23915e-17
3762.00050 1.29572e-17
3763.49814 1.12857e-17
3764.99578 1.05963e-17
3766.50360 1.30125e-17
3768.00124 1.30091e-17
3769.49887 1.27258e-17
3770.99651 1.29812e-17
3772.50433 1.12111e-17
3774.00197 1.13130e-17
3775.49960 1.09418e-17
3776.99724 1.28257e-17
3778.49488 1.27155e-17
3780.00270 1.26053e-17
3781.50034 1.25807e-17
3782.99797 1.25560e-17
3784.49561 1.25314e-17
3786.00343 1.25067e-17
3787.50107 1.24821e-17
3788.99870 1.24575e-17
3790.49634 1.24328e-17
3792.00416 1.24082e-17
3793.50180 1.23836e-17
3794.99944 1.23590e-17
3796.49707 1.23344e-17
3798.00490 1.23098e-17
3799.50253 1.22852e-17
3801.00017 1.22606e-17
3802.49780 1.22360e-17
3803.99544 1.22114e-17
3805.50326 1.21868e-17
3807.00090 1.21622e-17
3808.49854 1.21377e-17
3809.99617 1.21131e-17
3811.50400 1.20885e-17
3813.00163 1.20640e-17
3814.49927 1.20394e-17
3815.99690 1.20149e-17
3817.50473 1.19903e-17
3819.00236 1.09763e-17
3820.50000 1.17164e-17
3821.99764 1.20448e-17
3823.49527 1.18642e-17
3825.00310 1.23341e-17
3826.50073 1.18951e-17
3827.99837 1.21915e-17
3829.49600 1.29669e-17
3831.00383 1.36773e-17
3832.50146 1.25372e-17
3833.99910 1.28198e-17
3835.49674 1.34664e-17
3837.00456 1.34243e-17
3838.50220 1.22275e-17
3839.99983 1.45338e-17
3841.49747 1.37557e-17
3842.99510 1.22302e-17
3844.50293 1.37783e-17
3846.00056 1.20866e-17
3847.49820 1.27529e-17
3848.99584 1.17800e-17
3850.50366 1.26297e-17
3852.00130 1.20623e-17
3853.49893 1.25905e-17
3854.99657 1.33137e-17
3856.50439 1.28548e-17
3858.00203 1.27889e-17
3859.49966 1.16953e-17
3860.99730 1.29495e-17
3862.49494 1.30025e-17
3864.00276 1.19162e-17
3865.50040 1.24195e-17
3866.99803 1.22991e-17
3868.49567 1.22320e-17
3870.00349 1.21835e-17
3871.50113 1.33297e-17
3872.99876 1.13812e-17
3874.49640 1.07641e-17
3876.00422 1.14892e-17
3877.50186 1.24535e-17
3878.99950 1.32011e-17
3880.49713 1.27943e-17
3881.99477 1.22904e-17
3883.50259 1.29737e-17
3885.00023 1.27378e-17
3886.49786 1.21338e-17
3887.99550 1.23899e-17
3889.50332 1.38877e-17
3891.00096 1.48391e-17
3892.49860 1.42848e-17
3893.99623 1.32580e-17
3895.50406 1.24538e-17
3897.00169 1.16119e-17
3898.49933 1.21757e-17
3899.99696 1.35742e-17
3901.50479 1.31562e-17
3903.00242 1.23062e-17
3904.50006 1.21587e-17
3905.99770 1.36885e-17
3907.49533 1.33976e-17
3909.00316 1.42018e-17
3910.50079 1.37945e-17
3911.99843 1.28588e-17
3913.49606 1.36071e-17
3915.00389 1.26468e-17
3916.50152 1.38774e-17
3917.99916 1.38945e-17
3919.49680 1.21301e-17
3921.00462 1.34011e-17
3922.50226 1.29971e-17
3923.99989 1.40014e-17
3925.49753 1.43528e-17
3926.99516 1.36964e-17
3928.50299 1.33232e-17
3930.00062 1.39296e-17
3931.49826 1.31991e-17
3932.99590 1.24566e-17
3934.50372 1.25789e-17
3936.00136 1.35618e-17
3937.49899 1.33051e-17
3938.99663 1.35160e-17
3940.50445 1.38633e-17
3942.00209 1.45041e-17
3943.49972 1.39230e-17
3944.99736 1.27134e-17
3946.49500 1.24103e-17
3948.00282 1.23746e-17
3949.50046 1.28576e-17
3950.99809 1.23739e-17
3952.49573 1.25322e-17
3954.00355 1.36255e-17
3955.50119 1.39568e-17
3956.99882 1.35159e-17
3958.49646 1.31075e-17
3960.00428 1.28479e-17
3961.50192 1.27561e-17
3962.99956 1.38993e-17
3964.49719 1.39561e-17
3965.99483 1.22300e-17
3967.50265 1.24497e-17
3969.00029 1.28867e-17
3970.49792 1.19837e-17
3971.99556 1.25721e-17
3973.50338 1.37306e-17
3975.00102 1.25717e-17
3976.49866 1.25851e-17
3977.99629 1.39213e-17
3979.50412 1.39674e-17
3981.00175 1.31877e-17
3982.49939 1.28555e-17
3983.99702 1.27913e-17
3985.50485 1.38123e-17
3987.00248 1.38513e-17
3988.50012 1.13438e-17
3989.99776 1.26523e-17
3991.49539 1.41281e-17
3993.00322 1.25885e-17
3994.50085 1.31315e-17
3995.99849 1.32544e-17
3997.49612 1.24451e-17
3999.00395 1.21621e-17
4000.50158 1.35087e-17
4001.99922 1.19949e-17
4003.49686 1.13177e-17
4005.00468 1.14776e-17
4006.50232 1.24714e-17
4007.99995 1.21187e-17
4009.49759 1.24594e-17
4010.99522 1.39520e-17
4012.50305 1.42068e-17
4014.00068 1.39163e-17
4015.49832 1.28985e-17
4016.99596 1.35158e-17
4018.50378 1.50367e-17
4020.00142 1.33988e-17
4021.49905 1.31155e-17
4022.99669 1.34407e-17
4024.50451 1.26303e-17
4026.00215 1.41205e-17
4027.49978 1.32255e-17
4028.99742 1.30244e-17
4030.49506 1.27594e-17
4032.00288 1.34214e-17
4033.50052 1.41315e-17
4034.99815 1.38533e-17
4036.49579 1.36180e-17
4038.00361 1.38817e-17
4039.50125 1.32781e-17
4040.99888 1.21252e-17
4042.49652 1.50115e-17
4044.00434 1.49376e-17
4045.50198 1.30593e-17
4046.99962 1.22944e-17
4048.49725 1.44240e-17
4049.99489 1.46210e-17
4051.50271 1.30445e-17
4053.00035 1.35349e-17
4054.49798 1.41410e-17
4055.99562 1.44364e-17
4057.50344 1.42971e-17
4059.00108 1.29885e-17
4060.49872 1.38890e-17
4061.99635 1.36828e-17
4063.50418 1.42995e-17
4065.00181 1.36847e-17
4066.49945 1.42158e-17
4067.99708 1.52585e-17
4069.50491 1.55383e-17
4071.00254 1.44465e-17
4072.50018 1.37823e-17
4073.99782 1.45214e-17
4075.49545 1.47484e-17
4077.00328 1.45294e-17
4078.50091 1.49801e-17
4079.99855 1.50733e-17
4081.49618 1.57852e-17
4083.00401 1.43848e-17
4084.50164 1.30886e-17
4085.99928 1.47915e-17
4087.49692 1.54928e-17
4089.00474 1.38672e-17
4090.50238 1.34272e-17
4092.00001 1.44106e-17
4093.49765 1.46147e-17
4094.99528 1.36569e-17
4096.50311 1.47312e-17
4098.00074 1.49728e-17
4099.49838 1.32995e-17
4100.99602 1.38365e-17
4102.50384 1.54185e-17
4104.00148 1.49094e-17
4105.49911 1.41615e-17
4106.99675 1.46831e-17
4108.50457 1.53521e-17
4110.00221 1.46761e-17
4111.49984 1.39924e-17
4112.99748 1.49357e-17
4114.49512 1.50554e-17
4116.00294 1.42417e-17
4117.50058 1.30241e-17
4118.99821 1.38168e-17
4120.49585 1.47435e-17
4122.00367 1.52295e-17
4123.50131 1.41799e-17
4124.99894 1.38744e-17
4126.49658 1.55830e-17
4128.00440 1.37463e-17
4129.50204 1.37409e-17
4130.99968 1.43547e-17
4132.49731 1.32045e-17
4133.99495 1.30384e-17
4135.50277 1.37764e-17
4137.00041 1.37060e-17
4138.49804 1.54046e-17
4139.99568 1.42736e-17
4141.50350 1.43147e-17
4143.00114 1.33006e-17
4144.49878 1.32658e-17
4145.99641 1.34331e-17
4147.50424 1.43303e-17
4149.00187 1.51303e-17
4150.49951 1.48039e-17
4151.99714 1.30444e-17
4153.49478 1.36346e-17
4155.00260 1.46159e-17
4156.50024 1.47424e-17
4157.99788 1.38396e-17
4159.49551 1.35153e-17
4161.00334 1.24577e-17
4162.50097 1.31825e-17
4163.99861 1.50097e-17
4165.49624 1.52984e-17
4167.00407 1.45582e-17
4168.50170 1.45860e-17
4169.99934 1.48111e-17
4171.49698 1.50361e-17
4173.00480 1.50354e-17
4174.50244 1.45475e-17
4176.00007 1.44220e-17
4177.49771 1.35592e-17
4178.99534 1.40782e-17
4180.50317 1.36766e-17
4182.00080 1.36524e-17
4183.49844 1.53107e-17
4184.99608 1.54801e-17
4186.50390 1.44226e-17
4188.00154 1.46652e-17
4189.49917 1.39800e-17
4190.99681 1.40326e-17
4192.50463 1.43303e-17
4194.00227 1.40876e-17
4195.49990 1.39136e-17
4196.99754 1.40406e-17
4198.49518 1.39490e-17
4200.00300 1.45761e-17
4201.50064 1.42153e-17
4202.99827 1.38027e-17
4204.49591 1.39281e-17
4206.00373 1.35581e-17
4207.50137 1.44177e-17
4208.99900 1.46585e-17
4210.49664 1.42745e-17
4212.00446 1.34223e-17
4213.50210 1.37161e-17
4214.99974 1.49668e-17
4216.49737 1.46677e-17
4218.00520 1.31919e-17
4219.50283 1.30096e-17
4221.00047 1.39809e-17
4222.49810 1.44292e-17
4223.99574 1.36781e-17
4225.50356 1.24425e-17
4227.00120 1.27357e-17
4228.49884 1.28345e-17
4229.99647 1.31482e-17
4231.50430 1.27520e-17
4233.00193 1.23564e-17
4234.49957 1.35232e-17
4235.99720 1.36977e-17
4237.50503 1.26103e-17
4239.00266 1.30122e-17
4240.50030 1.33650e-17
4241.99794 1.28792e-17
4243.49557 1.37382e-17
4245.00340 1.29217e-17
4246.50103 1.24171e-17
4247.99867 1.29296e-17
4249.49630 1.35476e-17
4251.00413 1.36130e-17
4252.50176 1.36356e-17
4253.99940 1.22356e-17
4255.49704 1.27967e-17
4257.00486 1.40125e-17
4258.50250 1.30338e-17
4260.00013 1.26371e-17
4261.49777 1.28155e-17
4262.99540 1.18656e-17
4264.50323 1.30349e-17
4266.00086 1.36147e-17
4267.49850 1.32733e-17
4268.99614 1.24022e-17
4270.50396 1.23687e-17
4272.00160 1.29920e-17
4273.49923 1.31652e-17
4274.99687 1.27171e-17
4276.50469 1.32199e-17
4278.00233 1.30869e-17
4279.49996 1.19793e-17
4280.99760 1.24510e-17
4282.49524 1.18981e-17
4284.00306 1.18662e-17
4285.50070 1.24892e-17
4286.99833 1.30470e-17
4288.49597 1.18100e-17
4290.00379 1.14172e-17
4291.50143 1.27180e-17
4292.99906 1.37566e-17
4294.49670 1.24427e-17
4296.00452 1.16883e-17
4297.50216 1.23314e-17
4298.99980 1.26805e-17
4300.49743 1.23444e-17
4301.99507 1.22639e-17
4303.50289 1.23549e-17
4305.00053 1.15840e-17
4306.49816 1.17052e-17
4307.99580 1.23308e-17
4309.50362 1.26895e-17
4311.00126 1.19868e-17
4312.49890 1.20468e-17
4313.99653 1.22906e-17
4315.50436 1.17984e-17
4317.00199 1.13515e-17
4318.49963 1.16919e-17
4319.99726 1.21801e-17
4321.49490 1.15649e-17
4323.00272 1.20666e-17
4324.50036 1.33311e-17
4325.99800 1.26233e-17
4327.49563 1.26496e-17
4329.00346 1.24447e-17
4330.50109 1.29472e-17
4331.99873 1.22469e-17
4333.49636 1.26843e-17
4335.00419 1.24371e-17
4336.50182 1.11421e-17
4337.99946 1.14706e-17
4339.49710 1.22720e-17
4341.00492 1.29183e-17
4342.50256 1.18728e-17
4344.00019 1.15031e-17
4345.49783 1.14424e-17
4346.99546 1.18409e-17
4348.50329 1.30157e-17
4350.00092 1.30364e-17
4351.49856 1.22040e-17
4352.99620 1.21546e-17
4354.50402 1.16111e-17
4356.00166 1.15978e-17
4357.49929 1.28449e-17
4358.99693 1.31752e-17
4360.50475 1.31853e-17
4362.00239 1.37302e-17
4363.50002 1.35671e-17
4364.99766 1.31830e-17
4366.49530 1.27471e-17
4368.00312 1.25438e-17
4369.50076 1.35146e-17
4370.99839 1.36030e-17
4372.49603 1.18604e-17
4374.00385 1.18013e-17
4375.50149 1.31211e-17
4376.99912 1.29133e-17
4378.49676 1.28225e-17
4380.00458 1.34713e-17
4381.50222 1.28169e-17
4382.99986 1.22976e-17
4384.49749 1.26973e-17
4385.99513 1.30362e-17
4387.50295 1.32415e-17
4389.00059 1.26191e-17
4390.49822 1.35762e-17
4391.99586 1.32482e-17
4393.50368 1.30003e-17
4395.00132 1.34357e-17
4396.49896 1.27752e-17
4397.99659 1.35206e-17
4399.50442 1.33306e-17
4401.00205 1.33422e-17
4402.49969 1.38328e-17
4403.99732 1.40937e-17
4405.50515 1.47615e-17
4407.00278 1.36158e-17
4408.50042 1.35242e-17
4409.99806 1.28554e-17
4411.49569 1.44410e-17
4413.00352 1.39695e-17
4414.50115 1.42658e-17
4415.99879 1.43096e-17
4417.49642 1.43534e-17
4419.00425 1.43971e-17
4420.50188 1.44409e-17
4421.99952 1.44846e-17
4423.49716 1.45284e-17
4425.00498 1.45721e-17
4426.50262 1.46158e-17
4428.00025 1.46595e-17
4429.49789 1.47033e-17
4430.99552 1.47470e-17
4432.50335 1.47907e-17
4434.00098 1.48344e-17
4435.49862 1.48781e-17
4436.99626 1.49218e-17
4438.50408 1.49655e-17
4440.00172 1.50091e-17
4441.49935 1.50528e-17
4442.99699 1.50965e-17
4444.50481 1.51402e-17
4446.00245 1.51838e-17
4447.50008 1.52275e-17
4448.99772 1.52711e-17
4450.49536 1.53148e-17
4452.00318 1.53584e-17
4453.50082 1.54020e-17
4454.99845 1.54457e-17
4456.49609 1.54893e-17
4458.00391 1.55329e-17
4459.50155 1.55765e-17
4460.99918 1.56201e-17
4462.49682 1.56637e-17
4464.00464 1.57073e-17
4465.50228 1.57509e-17
4466.99992 1.57945e-17
4468.49755 1.58381e-17
4469.99519 1.58816e-17
4471.50301 1.59252e-17
4473.00065 1.59688e-17
4474.49828 1.60123e-17
4475.99592 1.60559e-17
4477.50374 1.59845e-17
4479.00138 1.58991e-17
4480.49902 1.68300e-17
4481.99665 1.68794e-17
4483.50448 1.57138e-17
4485.00211 1.44771e-17
4486.49975 1.44160e-17
4487.99738 1.42343e-17
4489.49502 1.41607e-17
4491.00284 1.52580e-17
4492.50048 1.50719e-17
4493.99812 1.51752e-17
4495.49575 1.43129e-17
4497.00358 1.54743e-17
4498.50121 1.61306e-17
4499.99885 1.47317e-17
4501.49648 1.45293e-17
4503.00431 1.49059e-17
4504.50194 1.44308e-17
4505.99958 1.48332e-17
4507.49722 1.61313e-17
4508.99485 1.61283e-17
4510.50268 1.59629e-17
4512.00031 1.51749e-17
4513.49795 1.48991e-17
4514.99558 1.56962e-17
4516.50341 1.51237e-17
4518.00104 1.50192e-17
4519.49868 1.57961e-17
4520.99632 1.63607e-17
4522.50414 1.63804e-17
4524.00178 1.60676e-17
4525.49941 1.55072e-17
4526.99705 1.56450e-17
4528.50487 1.59935e-17
4530.00251 1.55103e-17
4531.50014 1.66236e-17
4532.99778 1.65081e-17
4534.49542 1.54658e-17
4536.00324 1.58517e-17
4537.50088 1.60472e-17
4538.99851 1.61952e-17
4540.49615 1.61460e-17
4542.00397 1.57634e-17
4543.50161 1.55766e-17
4544.99924 1.61488e-17
4546.49688 1.61873e-17
4548.00470 1.60879e-17
4549.50234 1.62524e-17
4550.99998 1.58046e-17
4552.49761 1.63835e-17
4553.99525 1.68380e-17
4555.50307 1.65200e-17
4557.00071 1.69915e-17
4558.49834 1.70001e-17
4559.99598 1.68099e-17
4561.50380 1.67511e-17
4563.00144 1.57438e-17
4564.49908 1.55710e-17
4565.99671 1.51280e-17
4567.50454 1.62539e-17
4569.00217 1.64582e-17
4570.49981 1.63279e-17
4571.99744 1.76240e-17
4573.49508 1.72891e-17
4575.00290 1.62290e-17
4576.50054 1.57761e-17
4577.99818 1.53928e-17
4579.49581 1.57523e-17
4581.00364 1.61273e-17
4582.50127 1.61133e-17
4583.99891 1.59225e-17
4585.49654 1.51755e-17
4587.00437 1.56119e-17
4588.50200 1.59614e-17
4589.99964 1.61905e-17
4591.49728 1.66181e-17
4593.00510 1.65749e-17
4594.50274 1.65205e-17
4596.00037 1.65061e-17
4597.49801 1.63465e-17
4598.99564 1.58032e-17
4600.50347 1.62522e-17
4602.00110 1.65270e-17
4603.49874 1.58609e-17
4604.99638 1.64011e-17
4606.50420 1.70811e-17
4608.00184 1.75974e-17
4609.49947 1.69738e-17
4610.99711 1.62760e-17
4612.50493 1.65515e-17
4614.00257 1.60017e-17
4615.50020 1.61390e-17
4616.99784 1.56110e-17
4618.49548 1.67356e-17
4620.00330 1.69981e-17
4621.50094 1.59357e-17
4622.99857 1.55378e-17
4624.49621 1.56701e-17
4626.00403 1.62188e-17
4627.50167 1.61201e-17
4628.99930 1.54580e-17
4630.49694 1.58885e-17
4632.00476 1.54579e-17
4633.50240 1.55799e-17
4635.00004 1.54236e-17
4636.49767 1.65247e-17
4637.99531 1.59491e-17
4639.50313 1.51063e-17
4641.00077 1.55550e-17
4642.49840 1.59464e-17
4643.99604 1.63240e-17
4645.50386 1.59328e-17
4647.00150 1.65665e-17
4648.49914 1.59848e-17
4649.99677 1.49719e-17
4651.50460 1.54792e-17
4653.00223 1.57773e-17
4654.49987 1.52469e-17
4655.99750 1.54904e-17
4657.49514 1.63332e-17
4659.00296 1.62843e-17
4660.50060 1.53719e-17
4661.99824 1.54068e-17
4663.49587 1.60821e-17
4665.00370 1.55153e-17
4666.50133 1.52436e-17
4667.99897 1.53756e-17
4669.49660 1.55101e-17
4671.00443 1.54791e-17
4672.50206 1.42928e-17
4673.99970 1.43574e-17
4675.49734 1.51026e-17
4676.99497 1.60920e-17
4678.50280 1.52317e-17
4680.00043 1.49843e-17
4681.49807 1.53161e-17
4682.99570 1.49860e-17
4684.50353 1.42359e-17
4686.00116 1.54455e-17
4687.49880 1.63507e-17
4688.99644 1.52969e-17
4690.50426 1.51291e-17
4692.00190 1.45302e-17
4693.49953 1.35764e-17
4694.99717 1.44454e-17
4696.49480 1.51842e-17
4698.00263 1.58180e-17
4699.50026 1.42882e-17
4700.99790 1.47360e-17
4702.49554 1.45998e-17
4704.00336 1.45119e-17
4705.50100 1.42185e-17
4706.99863 1.45339e-17
4708.49627 1.41865e-17
4710.00409 1.44998e-17
4711.50173 1.45396e-17
4712.99936 1.41553e-17
4714.49700 1.48282e-17
4716.00482 1.52955e-17
4717.50246 1.47018e-17
4719.00010 1.42726e-17
4720.49773 1.37145e-17
4721.99537 1.37070e-17
4723.50319 1.41125e-17
4725.00083 1.39887e-17
4726.49846 1.39980e-17
4727.99610 1.46348e-17
4729.50392 1.48650e-17
4731.00156 1.51122e-17
4732.49920 1.48439e-17
4733.99683 1.42776e-17
4735.50466 1.38211e-17
4737.00229 1.38227e-17
4738.49993 1.44560e-17
4739.99756 1.45682e-17
4741.49520 1.41350e-17
4743.00302 1.44521e-17
4744.50066 1.40862e-17
4745.99830 1.36132e-17
4747.49593 1.35757e-17
4749.00376 1.35955e-17
4750.50139 1.44013e-17
4751.99903 1.45172e-17
4753.49666 1.39597e-17
4755.00449 1.33302e-17
4756.50212 1.40250e-17
4757.99976 1.40948e-17
4759.49740 1.42088e-17
4761.00522 1.34178e-17
4762.50286 1.41556e-17
4764.00049 1.41950e-17
4765.49813 1.41814e-17
4766.99576 1.27734e-17
4768.50359 1.31081e-17
4770.00122 1.37779e-17
4771.49886 1.29422e-17
4772.99650 1.31450e-17
4774.50432 1.31445e-17
4776.00196 1.28711e-17
4777.49959 1.31698e-17
4778.99723 1.30509e-17
4780.50505 1.35377e-17
4782.00269 1.28096e-17
4783.50032 1.28161e-17
4784.99796 1.25644e-17
4786.49560 1.34656e-17
4788.00342 1.30420e-17
4789.50106 1.27412e-17
4790.99869 1.30046e-17
4792.49633 1.33601e-17
4794.00415 1.39722e-17
4795.50179 1.32408e-17
4796.99942 1.28370e-17
4798.49706 1.39457e-17
4800.00488 1.38411e-17
4801.50252 1.29825e-17
4803.00016 1.29888e-17
4804.49779 1.34157e-17
4805.99543 1.30015e-17
4807.50325 1.35218e-17
4809.00089 1.39402e-17
4810.49852 1.35057e-17
4811.99616 1.33371e-17
4813.50398 1.30503e-17
4815.00162 1.33288e-17
4816.49926 1.39494e-17
4817.99689 1.37469e-17
4819.50472 1.44775e-17
4821.00235 1.32323e-17
4822.49999 1.25040e-17
4823.99762 1.27963e-17
4825.49526 1.32672e-17
4827.00308 1.38404e-17
4828.50072 1.28960e-17
4829.99836 1.24923e-17
4831.49599 1.17515e-17
4833.00382 1.25990e-17
4834.50145 1.29102e-17
4835.99909 1.31602e-17
4837.49672 1.24579e-17
4839.00455 1.32109e-17
4840.50218 1.28013e-17
4841.99982 1.32693e-17
4843.49746 1.32650e-17
4844.99509 1.35902e-17
4846.50292 1.31993e-17
4848.00055 1.30932e-17
4849.49819 1.29771e-17
4850.99582 1.24873e-17
4852.50365 1.29749e-17
4854.00128 1.30489e-17
4855.49892 1.35243e-17
4856.99656 1.29342e-17
4858.50438 1.29214e-17
4860.00202 1.30598e-17
4861.49965 1.33033e-17
4862.99729 1.30490e-17
4864.49492 1.26015e-17
4866.00275 1.21869e-17
4867.50038 1.16987e-17
4868.99802 1.26142e-17
4870.49566 1.27468e-17
4872.00348 1.24852e-17
4873.50112 1.24121e-17
4874.99875 1.28562e-17
4876.49639 1.26245e-17
4878.00421 1.27374e-17
4879.50185 1.29293e-17
4880.99948 1.28837e-17
4882.49712 1.24281e-17
4884.00494 1.23369e-17
4885.50258 1.21037e-17
4887.00022 1.26159e-17
4888.49785 1.27774e-17
4889.99549 1.32024e-17
4891.50331 1.31031e-17
4893.00095 1.27592e-17
4894.49858 1.29463e-17
4895.99622 1.26314e-17
4897.50404 1.27651e-17
4899.00168 1.21272e-17
4900.49932 1.28711e-17
4901.99695 1.24441e-17
4903.50478 1.22178e-17
4905.00241 1.22406e-17
4906.50005 1.18398e-17
4907.99768 1.20583e-17
4909.49532 1.21053e-17
4911.00314 1.23000e-17
4912.50078 1.29887e-17
4913.99842 1.21735e-17
4915.49605 1.26286e-17
4917.00388 1.24953e-17
4918.50151 1.25777e-17
4919.99915 1.22118e-17
4921.49678 1.23009e-17
4923.00461 1.22798e-17
4924.50224 1.17475e-17
4925.99988 1.26394e-17
4927.49752 1.29179e-17
4928.99515 1.23516e-17
4930.50298 1.21250e-17
4932.00061 1.24692e-17
4933.49825 1.21478e-17
4934.99588 1.21580e-17
4936.50371 1.21681e-17
4938.00134 1.21783e-17
4939.49898 1.21884e-17
4940.99662 1.21985e-17
4942.50444 1.22087e-17
4944.00208 1.22188e-17
4945.49971 1.22290e-17
4946.99735 1.22391e-17
4948.50517 1.22492e-17
4950.00281 1.22594e-17
4951.50044 1.22695e-17
4952.99808 1.22796e-17
4954.49572 1.22898e-17
4956.00354 1.22999e-17
4957.50118 1.23100e-17
4958.99881 1.23202e-17
4960.49645 1.23303e-17
4962.00427 1.23404e-17
4963.50191 1.23506e-17
4964.99954 1.23607e-17
4966.49718 1.23708e-17
4968.00500 1.23809e-17
4969.50264 1.23911e-17
4971.00028 1.24012e-17
4972.49791 1.24113e-17
4973.99555 1.20442e-17
4975.50337 1.22186e-17
4977.00101 1.19617e-17
4978.49864 1.17781e-17
4979.99628 1.25639e-17
4981.50410 1.27071e-17
4983.00174 1.21857e-17
4984.49938 1.19021e-17
4985.99701 1.18847e-17
4987.50484 1.18089e-17
4989.00247 1.15491e-17
4990.50011 1.13388e-17
4991.99774 1.10489e-17
4993.49538 1.20291e-17
4995.00320 1.19196e-17
4996.50084 1.21503e-17
4997.99848 1.17699e-17
4999.49611 1.25626e-17
5001.00394 1.19316e-17
5002.50157 1.19220e-17
5003.99921 1.29401e-17
5005.49684 1.27125e-17
5007.00467 1.17340e-17
5008.50230 1.14282e-17
5009.99994 1.22389e-17
5011.49758 1.25391e-17
5012.99521 1.25288e-17
5014.50304 1.27442e-17
5016.00067 1.30792e-17
5017.49831 1.26354e-17
5018.99594 1.21795e-17
5020.50377 1.20620e-17
