# wavelength flux
3259.99699 2.15733e-17
3262.00403 1.45883e-17
3264.00088 2.56960e-17
3265.99772 3.87813e-17
3268.00476 1.59036e-17
3270.00161 4.17601e-17
3271.99846 1.63006e-17
3273.99530 5.37266e-18
3276.00234 2.39241e-17
3277.99919 1.92128e-18
3279.99604 -1.34652e-17
3282.00307 -3.23362e-18
3283.99992 1.16557e-17
3285.99677 1.00601e-17
3288.00380 7.92320e-18
3290.00065 2.77622e-17
3291.99750 1.56242e-17
3294.00454 7.12812e-18
3296.00138 1.32762e-17
3297.99823 3.48777e-17
3299.99508 2.95350e-17
3302.00212 1.90406e-17
3303.99896 2.33099e-17
3305.99581 1.29592e-17
3308.00285 4.25014e-17
3309.99970 4.82130e-17
3311.99654 3.90591e-17
3314.00358 1.22561e-17
3316.00043 1.47429e-17
3317.99728 2.36541e-17
3320.00431 3.21781e-17
3322.00116 2.57333e-17
3323.99801 2.09809e-17
3325.99486 2.15509e-17
3328.00189 1.77547e-17
3329.99874 2.41069e-18
3331.99559 6.79379e-18
3334.00262 2.71995e-17
3335.99947 1.99455e-17
3337.99632 5.83334e-18
3340.00336 2.47740e-17
3342.00020 2.07885e-17
3343.99705 2.43734e-17
3346.00409 -3.72145e-18
3348.00094 8.58761e-18
3349.99778 2.56965e-17
3352.00482 1.61750e-17
3354.00167 2.32246e-17
3355.99852 2.89756e-17
3357.99536 3.07521e-17
3360.00240 7.90818e-18
3361.99925 1.88019e-17
3363.99610 -5.15272e-18
3366.00313 5.45513e-18
3367.99998 2.37920e-17
3369.99683 2.26884e-17
3372.00386 1.43287e-17
3374.00071 2.41316e-17
3375.99756 2.09781e-17
3378.00460 3.08838e-17
3380.00144 2.14523e-17
3381.99829 1.71845e-17
3383.99514 1.57288e-17
3386.00218 2.15439e-17
3387.99902 3.25429e-17
3389.99587 2.62755e-17
3392.00291 2.33928e-17
3393.99976 1.45987e-17
3395.99660 1.40185e-17
3398.00364 1.97775e-17
3400.00049 4.10675e-17
3401.99734 9.72807e-18
3404.00437 2.14541e-17
3406.00122 1.83151e-17
3407.99807 1.60266e-17
3409.99492 3.00575e-17
3412.00195 2.10151e-17
3413.99880 2.12113e-17
3415.99565 1.98119e-17
3418.00268 1.93510e-17
3419.99953 1.44611e-17
3421.99638 1.17309e-17
3424.00342 1.07761e-17
3426.00026 2.19297e-17
3427.99711 1.56121e-17
3430.00415 1.59591e-17
3432.00100 1.83980e-17
3433.99784 1.57635e-17
3436.00488 1.79521e-17
3438.00173 1.66183e-17
3439.99858 8.43845e-18
3441.99542 1.26582e-17
3444.00246 1.14614e-17
3445.99931 1.98403e-17
3447.99616 3.17528e-17
3450.00319 2.78809e-17
3452.00004 1.58669e-17
3453.99689 1.03617e-17
3456.00392 1.18323e-17
3458.00077 1.34782e-17
3459.99762 1.48752e-17
3462.00466 8.55434e-18
3464.00150 1.93142e-17
3465.99835 2.46106e-17
3467.99520 1.83753e-17
3470.00224 2.05816e-17
3471.99908 2.23612e-17
3473.99593 1.97338e-17
3476.00297 3.07056e-17
3477.99982 2.83996e-17
3479.99666 2.58548e-17
3482.00370 1.71632e-17
3484.00055 2.11842e-17
3485.99740 2.46044e-17
3488.00443 1.96278e-17
3490.00128 2.36732e-17
3491.99813 1.92048e-17
3493.99498 7.42815e-18
3496.00201 2.38603e-17
3497.99886 2.51877e-17
3499.99571 1.91763e-17
3502.00274 2.66084e-17
3503.99959 2.17101e-17
3505.99644 1.87041e-17
3508.00348 2.11684e-17
3510.00032 2.62566e-17
3511.99717 2.09876e-17
3514.00421 2.33946e-17
3516.00106 1.69950e-17
3517.99790 2.53057e-17
3520.00494 3.07843e-17
3522.00179 2.66559e-17
3523.99864 2.44310e-17
3525.99548 2.22513e-17
3528.00252 3.72507e-17
3529.99937 2.33493e-17
3531.99622 1.61052e-17
3534.00325 2.07986e-17
3536.00010 2.68838e-17
3537.99695 2.41093e-17
3540.00398 2.48951e-17
3542.00083 2.27564e-17
3543.99768 3.24181e-17
3546.00472 2.66505e-17
3548.00156 2.64539e-17
3549.99841 2.48714e-17
3551.99526 2.14119e-17
3554.00230 2.43750e-17
3555.99914 2.70702e-17
3557.99599 2.34195e-17
3560.00303 2.58670e-17
3561.99988 2.54534e-17
3563.99672 1.74824e-17
3566.00376 1.62593e-17
3568.00061 2.24944e-17
3569.99746 2.21275e-17
3572.00449 1.83599e-17
3574.00134 2.57103e-17
3575.99819 2.45794e-17
3577.99504 2.30904e-17
3580.00207 2.86237e-17
3581.99892 2.43425e-17
3583.99577 1.90817e-17
3586.00280 2.26111e-17
3587.99965 3.18698e-17
3589.99650 2.27552e-17
3592.00354 2.58624e-17
3594.00038 1.61008e-17
3595.99723 1.65889e-17
3598.00427 2.27310e-17
3600.00112 2.39515e-17
3601.99796 1.88628e-17
3604.00500 2.14024e-17
3606.00185 2.43520e-17
3607.99870 1.97122e-17
3609.99554 2.19183e-17
3612.00258 2.03803e-17
3613.99943 2.00314e-17
3615.99628 2.14651e-17
3618.00331 1.99759e-17
3620.00016 2.42248e-17
3621.99701 2.64782e-17
3624.00404 2.79954e-17
3626.00089 2.44260e-17
3627.99774 3.13392e-17
3630.00478 1.93095e-17
3632.00162 2.07432e-17
3633.99847 3.05414e-17
3635.99532 3.02222e-17
3638.00236 1.70458e-17
3639.99920 2.60103e-17
3641.99605 2.10520e-17
3644.00309 2.14949e-17
3645.99994 1.60738e-17
3647.99678 2.87772e-17
3650.00382 3.10090e-17
3652.00067 2.00151e-17
3653.99752 2.54309e-17
3656.00455 2.23127e-17
3658.00140 1.26012e-17
3659.99825 1.57665e-17
3661.99510 1.36776e-17
3664.00213 2.38492e-17
3665.99898 2.67202e-17
3667.99583 1.81958e-17
3670.00286 2.25885e-17
3671.99971 2.70141e-17
3673.99656 2.53874e-17
3676.00360 2.58571e-17
3678.00044 1.94639e-17
3679.99729 1.44312e-17
3682.00433 1.84895e-17
3684.00118 2.33186e-17
3685.99802 2.17161e-17
3688.00506 2.55990e-17
3690.00191 2.49165e-17
3691.99876 2.46376e-17
3693.99560 2.43636e-17
3696.00264 2.27777e-17
3697.99949 2.27226e-17
3699.99634 2.68603e-17
3702.00337 2.59383e-17
3704.00022 2.73319e-17
3705.99707 3.60714e-17
3708.00410 3.21581e-17
3710.00095 2.49947e-17
3711.99780 2.41700e-17
3714.00484 2.33116e-17
3716.00168 1.88842e-17
3717.99853 1.68877e-17
3719.99538 2.47013e-17
3722.00242 2.29971e-17
3723.99926 2.79361e-17
3725.99611 2.32498e-17
3728.00315 1.86731e-17
3730.00000 2.36771e-17
3731.99684 2.55946e-17
3734.00388 2.32687e-17
3736.00073 2.51249e-17
3737.99758 2.33952e-17
3740.00461 1.92314e-17
3742.00146 2.47132e-17
3743.99831 2.37862e-17
3745.99516 2.50849e-17
3748.00219 2.14327e-17
3749.99904 1.84568e-17
3751.99589 2.55187e-17
3754.00292 2.73589e-17
3755.99977 2.48787e-17
3757.99662 2.37443e-17
3760.00366 2.39684e-17
3762.00050 1.99493e-17
3763.99735 2.10079e-17
3766.00439 2.09654e-17
3768.00124 2.31601e-17
3769.99808 2.41785e-17
3772.00512 2.03714e-17
3774.00197 2.58724e-17
3775.99882 2.36730e-17
3777.99566 2.35339e-17
3780.00270 2.33949e-17
3781.99955 2.34208e-17
3783.99640 2.34468e-17
3786.00343 2.34728e-17
3788.00028 2.34988e-17
3789.99713 2.35247e-17
3792.00416 2.35507e-17
3794.00101 2.35767e-17
3795.99786 2.36027e-17
3798.00490 2.36287e-17
3800.00174 2.36547e-17
3801.99859 2.36807e-17
3803.99544 2.37067e-17
3806.00248 2.37326e-17
3807.99932 2.37586e-17
3809.99617 2.37846e-17
3812.00321 2.38106e-17
3814.00006 2.38366e-17
3815.99690 2.38626e-17
3818.00394 2.38886e-17
3820.00079 2.26766e-17
3821.99764 2.20729e-17
3824.00467 2.34957e-17
3826.00152 2.36637e-17
3827.99837 2.03901e-17
3829.99522 1.57701e-17
3832.00225 2.25647e-17
3833.99910 2.43275e-17
3835.99595 2.22045e-17
3838.00298 1.85562e-17
3839.99983 1.80930e-17
3841.99668 2.65318e-17
3844.00372 2.42115e-17
3846.00056 2.50963e-17
3847.99741 2.18049e-17
3850.00445 2.25391e-17
3852.00130 2.60425e-17
3853.99814 2.20606e-17
3855.99499 2.15161e-17
3858.00203 2.28453e-17
3859.99888 2.05349e-17
3861.99572 1.86344e-17
3864.00276 2.21050e-17
3865.99961 2.61918e-17
3867.99646 2.49787e-17
3870.00349 2.33681e-17
3872.00034 1.97180e-17
3873.99719 2.09101e-17
3876.00422 2.50022e-17
3878.00107 2.27452e-17
3879.99792 2.18543e-17
3881.99477 2.26119e-17
3884.00180 2.25150e-17
3885.99865 2.45061e-17
3887.99550 2.30333e-17
3890.00254 2.48812e-17
3891.99938 2.26710e-17
3893.99623 2.42507e-17
3896.00327 2.37740e-17
3898.00012 2.15411e-17
3899.99696 2.22346e-17
3902.00400 2.27864e-17
3904.00085 2.01677e-17
3905.99770 2.24303e-17
3908.00473 2.24837e-17
3910.00158 2.12774e-17
3911.99843 2.27911e-17
3913.99528 2.42964e-17
3916.00231 2.32650e-17
3917.99916 2.00673e-17
3919.99601 2.28877e-17
3922.00304 2.18949e-17
3923.99989 1.95467e-17
3925.99674 1.85305e-17
3928.00378 2.50377e-17
3930.00062 2.59935e-17
3931.99747 2.37627e-17
3934.00451 2.37705e-17
3936.00136 1.89128e-17
3937.99820 1.89495e-17
3939.99505 2.44641e-17
3942.00209 2.60470e-17
3943.99894 2.56418e-17
3945.99578 2.51024e-17
3948.00282 2.34251e-17
3949.99967 2.33567e-17
3951.99652 2.43529e-17
3954.00355 2.53300e-17
3956.00040 2.56875e-17
3957.99725 2.19626e-17
3960.00428 2.07255e-17
3962.00113 2.53765e-17
3963.99798 2.52441e-17
3965.99483 2.66903e-17
3968.00186 2.64413e-17
3969.99871 2.66811e-17
3971.99556 2.41891e-17
3974.00260 2.54864e-17
3975.99944 2.60407e-17
3977.99629 2.49811e-17
3980.00333 2.48133e-17
3982.00018 2.51095e-17
3983.99702 2.76343e-17
3986.00406 2.77243e-17
3988.00091 2.76506e-17
3989.99776 2.57654e-17
3992.00479 2.51953e-17
3994.00164 2.63599e-17
3995.99849 2.28906e-17
3997.99534 2.33983e-17
4000.00237 2.53826e-17
4001.99922 2.52820e-17
4003.99607 2.46298e-17
4006.00310 2.29603e-17
4007.99995 2.36952e-17
4009.99680 2.53884e-17
4012.00384 2.61183e-17
4014.00068 2.61417e-17
4015.99753 2.51302e-17
4018.00457 2.56541e-17
4020.00142 3.14740e-17
4021.99826 2.84853e-17
4023.99511 2.16206e-17
4026.00215 2.07983e-17
4027.99900 2.56496e-17
4029.99584 2.56867e-17
4032.00288 2.70886e-17
4033.99973 2.63832e-17
4035.99658 2.46993e-17
4038.00361 2.30070e-17
4040.00046 2.19952e-17
4041.99731 2.20328e-17
4044.00434 2.86955e-17
4046.00119 3.09486e-17
4047.99804 2.79992e-17
4049.99489 2.64074e-17
4052.00192 2.62822e-17
4053.99877 3.02229e-17
4055.99562 2.37797e-17
4058.00266 2.13947e-17
4059.99950 2.53517e-17
4061.99635 2.39492e-17
4064.00339 2.36281e-17
4066.00024 2.64688e-17
4067.99708 2.61583e-17
4070.00412 2.24474e-17
4072.00097 2.63499e-17
4073.99782 2.91885e-17
4076.00485 2.49998e-17
4078.00170 2.50367e-17
4079.99855 2.76547e-17
4081.99540 2.67237e-17
4084.00243 2.54652e-17
4085.99928 2.50155e-17
4087.99613 2.47750e-17
4090.00316 2.68809e-17
4092.00001 2.62157e-17
4093.99686 2.55486e-17
4096.00390 2.93536e-17
4098.00074 2.58387e-17
4099.99759 2.48911e-17
4102.00463 2.48377e-17
4104.00148 2.36744e-17
4105.99832 2.57093e-17
4107.99517 2.72308e-17
4110.00221 2.44087e-17
4111.99906 2.25948e-17
4113.99590 2.42453e-17
4116.00294 2.61188e-17
4117.99979 2.25527e-17
4119.99664 2.01864e-17
4122.00367 2.37427e-17
4124.00052 2.33469e-17
4125.99737 2.43655e-17
4128.00440 2.34523e-17
4130.00125 2.49179e-17
4131.99810 2.64959e-17
4133.99495 2.65467e-17
4136.00198 2.58261e-17
4137.99883 2.72348e-17
4139.99568 2.52274e-17
4142.00272 2.49638e-17
4143.99956 2.55782e-17
4145.99641 2.59223e-17
4148.00345 2.68513e-17
4150.00030 2.71919e-17
4151.99714 2.46644e-17
4154.00418 2.56302e-17
4156.00103 2.17052e-17
4157.99788 2.33600e-17
4160.00491 2.41146e-17
4162.00176 2.37039e-17
4163.99861 2.12595e-17
4165.99546 2.43075e-17
4168.00249 2.45455e-17
4169.99934 2.26393e-17
4171.99619 2.55289e-17
4174.00322 2.63802e-17
4176.00007 2.45433e-17
4177.99692 2.50559e-17
4180.00396 2.56459e-17
4182.00080 2.39611e-17
4183.99765 2.15802e-17
4186.00469 2.43385e-17
4188.00154 2.46024e-17
4189.99838 2.37801e-17
4191.99523 2.28674e-17
4194.00227 2.41564e-17
4195.99912 2.29030e-17
4197.99596 2.26735e-17
4200.00300 2.49084e-17
4201.99985 2.38986e-17
4203.99670 2.40233e-17
4206.00373 2.18911e-17
4208.00058 2.42386e-17
4209.99743 2.56324e-17
4212.00446 2.61390e-17
4214.00131 2.54583e-17
4215.99816 2.33541e-17
4218.00520 2.05054e-17
4220.00204 2.06046e-17
4221.99889 2.36956e-17
4223.99574 2.32348e-17
4226.00278 2.38330e-17
4227.99962 2.28918e-17
4229.99647 2.24423e-17
4232.00351 2.09964e-17
4234.00036 2.10814e-17
4235.99720 2.39607e-17
4238.00424 2.35902e-17
4240.00109 2.38244e-17
4241.99794 2.18095e-17
4244.00497 2.15659e-17
4246.00182 2.39622e-17
4247.99867 2.02271e-17
4249.99552 1.77382e-17
4252.00255 2.24729e-17
4253.99940 2.65017e-17
4255.99625 2.63987e-17
4258.00328 2.15351e-17
4260.00013 2.11543e-17
4261.99698 2.40733e-17
4264.00402 2.33445e-17
4266.00086 2.35612e-17
4267.99771 2.19689e-17
4270.00475 1.95796e-17
4272.00160 2.15549e-17
4273.99844 2.27234e-17
4275.99529 1.97385e-17
4278.00233 2.01500e-17
4279.99918 2.07714e-17
4281.99602 1.95514e-17
4284.00306 2.35938e-17
4285.99991 2.38873e-17
4287.99676 2.01581e-17
4290.00379 2.09141e-17
4292.00064 2.24084e-17
4293.99749 2.31772e-17
4296.00452 2.37212e-17
4298.00137 2.18257e-17
4299.99822 2.13305e-17
4301.99507 2.02222e-17
4304.00210 2.06372e-17
4305.99895 2.29748e-17
4307.99580 2.26449e-17
4310.00284 2.13059e-17
4311.99968 2.41013e-17
4313.99653 2.62726e-17
4316.00357 2.55972e-17
4318.00042 2.30380e-17
4319.99726 2.34874e-17
4322.00430 2.00652e-17
4324.00115 2.15047e-17
4325.99800 2.23303e-17
4327.99484 2.25041e-17
4330.00188 2.22285e-17
4331.99873 2.09502e-17
4333.99558 2.22740e-17
4336.00261 2.26333e-17
4337.99946 2.02261e-17
4339.99631 2.19347e-17
4342.00334 2.16084e-17
4344.00019 2.08572e-17
4345.99704 1.90330e-17
4348.00408 2.20188e-17
4350.00092 2.52524e-17
4351.99777 2.98918e-17
4354.00481 2.41054e-17
4356.00166 2.51784e-17
4357.99850 2.57532e-17
4359.99535 2.90910e-17
4362.00239 2.76980e-17
4363.99924 2.56550e-17
4365.99608 2.35069e-17
4368.00312 2.46181e-17
4369.99997 2.89041e-17
4371.99682 2.74051e-17
4374.00385 2.46225e-17
4376.00070 2.46615e-17
4377.99755 2.66693e-17
4380.00458 2.59226e-17
4382.00143 2.47235e-17
4383.99828 2.38267e-17
4385.99513 2.51176e-17
4388.00216 2.81285e-17
4389.99901 2.53173e-17
4391.99586 2.61705e-17
4394.00290 2.35188e-17
4395.99974 2.25000e-17
4397.99659 2.33218e-17
4400.00363 2.66513e-17
4402.00048 2.69376e-17
4403.99732 2.51401e-17
4406.00436 2.78021e-17
4408.00121 2.58486e-17
4409.99806 2.34021e-17
4411.99490 2.79872e-17
4414.00194 2.54603e-17
4415.99879 2.54608e-17
4417.99564 2.54612e-17
4420.00267 2.54616e-17
4421.99952 2.54619e-17
4423.99637 2.54623e-17
4426.00340 2.54627e-17
4428.00025 2.54631e-17
4429.99710 2.54635e-17
4432.00414 2.54639e-17
4434.00098 2.54643e-17
4435.99783 2.54647e-17
4437.99468 2.54651e-17
4440.00172 2.54654e-17
4441.99856 2.54658e-17
4443.99541 2.54662e-17
4446.00245 2.54666e-17
4447.99930 2.54669e-17
4449.99614 2.54673e-17
4452.00318 2.54677e-17
4454.00003 2.54680e-17
4455.99688 2.54684e-17
4458.00391 2.54688e-17
4460.00076 2.54691e-17
4461.99761 2.54695e-17
4464.00464 2.54698e-17
4466.00149 2.54702e-17
4467.99834 2.54705e-17
4469.99519 2.54709e-17
4472.00222 2.54712e-17
4473.99907 2.54716e-17
4475.99592 2.54719e-17
4478.00296 2.71866e-17
4479.99980 2.63596e-17
4481.99665 2.59734e-17
4484.00369 2.43174e-17
4486.00054 2.41248e-17
4487.99738 2.52938e-17
4490.00442 2.49839e-17
4492.00127 2.32998e-17
4493.99812 2.43075e-17
4495.99496 2.53782e-17
4498.00200 2.36239e-17
4499.99885 2.18329e-17
4501.99570 2.47961e-17
4504.00273 2.46878e-17
4505.99958 2.39975e-17
4507.99643 2.53737e-17
4510.00346 2.26684e-17
4512.00031 2.53481e-17
4513.99716 2.64089e-17
4516.00420 2.61371e-17
4518.00104 2.65340e-17
4519.99789 2.49008e-17
4522.00493 2.56141e-17
4524.00178 2.34751e-17
4525.99862 2.13341e-17
4527.99547 2.21294e-17
4530.00251 2.64358e-17
4531.99936 2.47916e-17
4533.99620 2.30014e-17
4536.00324 2.40742e-17
4538.00009 2.57537e-17
4539.99694 2.38989e-17
4542.00397 2.45993e-17
4544.00082 2.53221e-17
4545.99767 2.46901e-17
4548.00470 2.46115e-17
4550.00155 2.45194e-17
4551.99840 2.62264e-17
4553.99525 2.73763e-17
4556.00228 2.70322e-17
4557.99913 2.62096e-17
4559.99598 2.66353e-17
4562.00302 2.54357e-17
4563.99986 2.63211e-17
4565.99671 2.46559e-17
4568.00375 2.46647e-17
4570.00060 2.36793e-17
4571.99744 2.31870e-17
4574.00448 2.47658e-17
4576.00133 2.43928e-17
4577.99818 2.34865e-17
4579.99502 2.32227e-17
4582.00206 2.60601e-17
4583.99891 2.47883e-17
4585.99576 2.21216e-17
4588.00279 2.28592e-17
4589.99964 2.38385e-17
4591.99649 2.46736e-17
4594.00352 2.58318e-17
4596.00037 2.60577e-17
4597.99722 2.66061e-17
4600.00426 2.57706e-17
4602.00110 2.52014e-17
4603.99795 2.52564e-17
4605.99480 2.51950e-17
4608.00184 2.55939e-17
4609.99868 2.45558e-17
4611.99553 2.21740e-17
4614.00257 2.40074e-17
4615.99942 2.56724e-17
4617.99626 2.65591e-17
4620.00330 2.72279e-17
4622.00015 2.41797e-17
4623.99700 2.45627e-17
4626.00403 2.66762e-17
4628.00088 2.47202e-17
4629.99773 2.45195e-17
4632.00476 2.50492e-17
4634.00161 2.48801e-17
4635.99846 2.52339e-17
4637.99531 2.51441e-17
4640.00234 2.62751e-17
4641.99919 2.48529e-17
4643.99604 2.42916e-17
4646.00308 2.62134e-17
4647.99992 2.47338e-17
4649.99677 2.39153e-17
4652.00381 2.40003e-17
4654.00066 2.46575e-17
4655.99750 2.37871e-17
4658.00454 2.30589e-17
4660.00139 2.47257e-17
4661.99824 2.55496e-17
4663.99508 2.57394e-17
4666.00212 2.43612e-17
4667.99897 2.33615e-17
4669.99582 2.36215e-17
4672.00285 2.32629e-17
4673.99970 2.32357e-17
4675.99655 2.35156e-17
4678.00358 2.35010e-17
4680.00043 2.46087e-17
4681.99728 2.26585e-17
4684.00432 2.12739e-17
4686.00116 2.12344e-17
4687.99801 2.40776e-17
4690.00505 2.28580e-17
4692.00190 2.12132e-17
4693.99874 2.44265e-17
4695.99559 2.23275e-17
4698.00263 1.98716e-17
4699.99948 2.07382e-17
4701.99632 2.23019e-17
4704.00336 2.41750e-17
4706.00021 2.50642e-17
4707.99706 2.24406e-17
4710.00409 2.20306e-17
4712.00094 2.30111e-17
4713.99779 2.10842e-17
4716.00482 2.19832e-17
4718.00167 2.11719e-17
4719.99852 2.40086e-17
4721.99537 2.55253e-17
4724.00240 2.16815e-17
4725.99925 2.29151e-17
4727.99610 2.20950e-17
4730.00314 2.07812e-17
4731.99998 2.12422e-17
4733.99683 2.27069e-17
4736.00387 2.53009e-17
4738.00072 2.38845e-17
4739.99756 2.30307e-17
4742.00460 2.25782e-17
4744.00145 2.17138e-17
4745.99830 2.31448e-17
4747.99514 2.39509e-17
4750.00218 2.29006e-17
4751.99903 2.29152e-17
4753.99588 2.25840e-17
4756.00291 2.32303e-17
4757.99976 2.17099e-17
4759.99661 2.09365e-17
4762.00364 2.22616e-17
4764.00049 2.16930e-17
4765.99734 2.19162e-17
4768.00438 2.16589e-17
4770.00122 2.14991e-17
4771.99807 2.20538e-17
4773.99492 2.12344e-17
4776.00196 2.12505e-17
4777.99880 2.22977e-17
4779.99565 2.25915e-17
4782.00269 2.10852e-17
4783.99954 1.92799e-17
4785.99638 2.08410e-17
4788.00342 2.04731e-17
4790.00027 2.04904e-17
4791.99712 2.16375e-17
4794.00415 2.17002e-17
4796.00100 2.05994e-17
4797.99785 2.00872e-17
4800.00488 2.00338e-17
4802.00173 1.93789e-17
4803.99858 2.00080e-17
4805.99543 2.01853e-17
4808.00246 1.94369e-17
4809.99931 1.94752e-17
4811.99616 2.12010e-17
4814.00320 2.10574e-17
4816.00004 2.02197e-17
4817.99689 2.07545e-17
4820.00393 2.06525e-17
4822.00078 2.07233e-17
4823.99762 1.97141e-17
4826.00466 2.20542e-17
4828.00151 2.09091e-17
4829.99836 2.14413e-17
4831.99520 2.15595e-17
4834.00224 2.19093e-17
4835.99909 1.93781e-17
4837.99594 2.51034e-17
4840.00297 2.89778e-17
4841.99982 2.05954e-17
4843.99667 2.03276e-17
4846.00370 2.08189e-17
4848.00055 1.95397e-17
4849.99740 2.05632e-17
4852.00444 2.20801e-17
4854.00128 2.02126e-17
4855.99813 1.79864e-17
4857.99498 2.08444e-17
4860.00202 1.98032e-17
4861.99886 1.81196e-17
4863.99571 2.06003e-17
4866.00275 2.10184e-17
4867.99960 2.03714e-17
4869.99644 2.07837e-17
4872.00348 2.11962e-17
4874.00033 1.99170e-17
4875.99718 2.01563e-17
4878.00421 2.18677e-17
4880.00106 2.17491e-17
4881.99791 2.08073e-17
4884.00494 1.66883e-17
4886.00179 1.79068e-17
4887.99864 1.80313e-17
4889.99549 1.75958e-17
4892.00252 1.91749e-17
4893.99937 2.10456e-17
4895.99622 2.07590e-17
4898.00326 1.90488e-17
4900.00010 1.92732e-17
4901.99695 2.00515e-17
4904.00399 2.09592e-17
4906.00084 2.16129e-17
4907.99768 1.94026e-17
4910.00472 1.86380e-17
4912.00157 2.01966e-17
4913.99842 1.82634e-17
4915.99526 1.60794e-17
4918.00230 1.85493e-17
4919.99915 1.84360e-17
4921.99600 1.87189e-17
4924.00303 1.87020e-17
4925.99988 2.00560e-17
4927.99673 1.87746e-17
4930.00376 1.81983e-17
4932.00061 1.87061e-17
4933.99746 1.98026e-17
4936.00450 1.98768e-17
4938.00134 1.99509e-17
4939.99819 2.00251e-17
4941.99504 2.00992e-17
4944.00208 2.01734e-17
4945.99892 2.02475e-17
4947.99577 2.03216e-17
4950.00281 2.03957e-17
4951.99966 2.04698e-17
4953.99650 2.05439e-17
4956.00354 2.06180e-17
4958.00039 2.06921e-17
4959.99724 2.07661e-17
4962.00427 2.08401e-17
4964.00112 2.09142e-17
4965.99797 2.09882e-17
4968.00500 2.10622e-17
4970.00185 2.11362e-17
4971.99870 2.12102e-17
4973.99555 1.83344e-17
4976.00258 2.31737e-17
4977.99943 1.99416e-17
4979.99628 1.82689e-17
4982.00332 2.09332e-17
4984.00016 2.10413e-17
4985.99701 2.08088e-17
4988.00405 2.07223e-17
4990.00090 2.23350e-17
4991.99774 2.22419e-17
4994.00478 2.03119e-17
