# wavelength flux
3199.99986 6.73464e-18
3201.99671 4.23192e-18
3204.00374 4.48127e-18
3206.00059 3.68634e-18
3207.99744 4.76081e-18
3210.00448 4.51896e-18
3212.00132 4.54883e-18
3213.99817 2.53731e-18
3215.99502 4.98849e-18
3218.00206 5.65398e-18
3219.99890 5.18081e-18
3221.99575 3.97207e-18
3224.00279 5.98506e-18
3225.99964 6.45060e-18
3227.99648 3.60839e-18
3230.00352 4.75634e-18
3232.00037 2.79378e-18
3233.99722 3.35238e-18
3236.00425 2.66153e-18
3238.00110 3.03650e-18
3239.99795 4.88188e-18
3242.00498 4.07999e-18
3244.00183 5.00155e-18
3245.99868 3.08825e-18
3247.99553 4.17887e-18
3250.00256 5.23042e-18
3251.99941 4.11677e-18
3253.99626 3.24910e-18
3256.00330 3.57916e-18
3258.00014 3.87077e-18
3259.99699 4.77421e-18
3262.00403 2.76757e-18
3264.00088 4.26340e-18
3265.99772 3.29082e-18
3268.00476 4.80444e-18
3270.00161 4.66210e-18
3271.99846 3.35381e-18
3273.99530 3.26255e-18
3276.00234 3.80016e-18
3277.99919 4.80246e-18
3279.99604 3.71057e-18
3282.00307 3.87515e-18
3283.99992 3.02659e-18
3285.99677 4.08188e-18
3288.00380 3.74583e-18
3290.00065 4.23084e-18
3291.99750 2.76358e-18
3294.00454 3.40547e-18
3296.00138 2.33804e-18
3297.99823 3.34343e-18
3299.99508 3.26299e-18
3302.00212 4.05939e-18
3303.99896 4.48852e-18
3305.99581 4.24362e-18
3308.00285 4.70504e-18
3309.99970 4.35026e-18
3311.99654 3.98806e-18
3314.00358 4.79017e-18
3316.00043 3.81172e-18
3317.99728 2.94469e-18
3320.00431 4.08105e-18
3322.00116 4.11323e-18
3323.99801 4.18724e-18
3325.99486 3.49743e-18
3328.00189 4.58860e-18
3329.99874 4.36644e-18
3331.99559 5.00304e-18
3334.00262 3.67330e-18
3335.99947 4.48837e-18
3337.99632 4.16332e-18
3340.00336 4.19638e-18
3342.00020 4.06684e-18
3343.99705 3.83305e-18
3346.00409 5.61270e-18
3348.00094 4.24412e-18
3349.99778 6.17201e-18
3352.00482 5.19378e-18
3354.00167 4.29973e-18
3355.99852 4.51853e-18
3357.99536 4.00929e-18
3360.00240 3.73393e-18
3361.99925 3.54012e-18
3363.99610 3.53496e-18
3366.00313 4.42052e-18
3367.99998 4.21287e-18
3369.99683 3.87856e-18
3372.00386 3.49765e-18
3374.00071 4.41126e-18
3375.99756 3.50736e-18
3378.00460 3.77583e-18
3380.00144 2.86419e-18
3381.99829 4.62170e-18
3383.99514 4.80431e-18
3386.00218 4.17679e-18
3387.99902 3.74791e-18
3389.99587 3.02198e-18
3392.00291 4.57823e-18
3393.99976 3.73353e-18
3395.99660 4.36019e-18
3398.00364 3.93449e-18
3400.00049 4.10987e-18
3401.99734 3.55388e-18
3404.00437 3.67891e-18
3406.00122 4.00159e-18
3407.99807 4.39262e-18
3409.99492 3.82858e-18
3412.00195 4.52606e-18
3413.99880 3.88189e-18
3415.99565 3.93853e-18
3418.00268 3.94944e-18
3419.99953 4.09029e-18
3421.99638 4.78612e-18
3424.00342 4.31785e-18
3426.00026 4.04236e-18
3427.99711 3.27266e-18
3430.00415 4.40685e-18
3432.00100 4.62140e-18
3433.99784 4.88344e-18
3436.00488 4.38523e-18
3438.00173 4.43167e-18
3439.99858 4.54495e-18
3441.99542 4.67474e-18
3444.00246 4.41119e-18
3445.99931 4.43734e-18
3447.99616 4.02306e-18
3450.00319 4.16765e-18
3452.00004 4.80343e-18
3453.99689 4.52159e-18
3456.00392 4.20245e-18
3458.00077 4.05752e-18
3459.99762 4.21845e-18
3462.00466 4.41758e-18
3464.00150 4.50675e-18
3465.99835 5.12079e-18
3467.99520 4.54926e-18
3470.00224 4.40734e-18
3471.99908 4.72482e-18
3473.99593 4.14305e-18
3476.00297 4.06178e-18
3477.99982 4.46541e-18
3479.99666 4.57448e-18
3482.00370 4.35164e-18
3484.00055 4.59784e-18
3485.99740 4.52243e-18
3488.00443 4.88369e-18
3490.00128 4.91815e-18
3491.99813 5.26197e-18
3493.99498 5.32070e-18
3496.00201 4.83930e-18
3497.99886 4.78776e-18
3499.99571 4.38225e-18
3502.00274 4.39167e-18
3503.99959 5.03920e-18
3505.99644 4.96673e-18
3508.00348 4.88050e-18
3510.00032 3.86095e-18
3511.99717 5.24241e-18
3514.00421 4.14948e-18
3516.00106 4.81248e-18
3517.99790 5.46496e-18
3520.00494 4.67463e-18
3522.00179 5.02261e-18
3523.99864 5.09727e-18
3525.99548 5.86960e-18
3528.00252 5.24995e-18
3529.99937 5.09272e-18
3531.99622 5.31390e-18
3534.00325 5.24194e-18
3536.00010 5.05596e-18
3537.99695 4.96482e-18
3540.00398 5.43507e-18
3542.00083 5.13622e-18
3543.99768 5.05572e-18
3546.00472 5.25839e-18
3548.00156 4.63438e-18
3549.99841 5.87237e-18
3551.99526 5.84929e-18
3554.00230 5.28996e-18
3555.99914 5.05135e-18
3557.99599 4.87103e-18
3560.00303 5.26548e-18
3561.99988 5.32703e-18
3563.99672 5.72154e-18
3566.00376 5.28410e-18
3568.00061 4.93236e-18
3569.99746 4.96954e-18
3572.00449 4.95684e-18
3574.00134 5.01124e-18
3575.99819 5.17881e-18
3577.99504 5.09388e-18
3580.00207 5.30624e-18
3581.99892 5.09847e-18
3583.99577 5.19725e-18
3586.00280 4.71749e-18
3587.99965 5.52395e-18
3589.99650 4.94863e-18
3592.00354 5.20976e-18
3594.00038 5.25523e-18
3595.99723 5.42267e-18
3598.00427 5.63756e-18
3600.00112 5.12317e-18
3601.99796 5.43579e-18
3604.00500 7.09651e-18
3606.00185 8.38166e-18
3607.99870 1.32946e-17
3609.99554 9.70190e-18
3612.00258 5.72041e-18
3613.99943 9.90960e-19
3615.99628 2.08190e-18
3618.00331 1.86072e-18
3620.00016 4.86056e-18
3621.99701 3.77452e-18
3624.00404 3.17477e-18
3626.00089 1.45768e-18
3627.99774 7.49859e-18
3630.00478 2.22071e-18
3632.00162 -5.41373e-18
3633.99847 2.41163e-18
3635.99532 1.11871e-17
3638.00236 4.10103e-18
3639.99920 1.07301e-19
3641.99605 2.30209e-18
3644.00309 -3.67051e-19
3645.99994 5.89697e-18
3647.99678 6.26402e-18
3650.00382 3.53584e-18
3652.00067 7.19701e-18
3653.99752 1.01204e-17
3656.00455 1.14899e-17
3658.00140 3.93413e-18
3659.99825 -1.00336e-18
3661.99510 1.72482e-18
3664.00213 2.68969e-18
3665.99898 5.56046e-18
3667.99583 5.49700e-18
3670.00286 3.58455e-18
3671.99971 1.01190e-17
3673.99656 9.03259e-18
3676.00360 2.91135e-18
3678.00044 3.51037e-18
3679.99729 2.91892e-18
3682.00433 3.93976e-18
3684.00118 6.27630e-18
3685.99802 7.65023e-18
3688.00506 4.78864e-18
3690.00191 3.19306e-18
3691.99876 2.40639e-18
3693.99560 4.03809e-18
3696.00264 4.89903e-18
3697.99949 3.96172e-18
3699.99634 5.63566e-18
3702.00337 4.79438e-18
3704.00022 5.86007e-18
3705.99707 4.21521e-18
3708.00410 4.01117e-18
3710.00095 4.35368e-18
3711.99780 5.95872e-18
3714.00484 3.75980e-18
3716.00168 4.34383e-18
3717.99853 3.60629e-18
3719.99538 4.65389e-18
3722.00242 5.07192e-18
3723.99926 8.66994e-18
3725.99611 6.70387e-18
3728.00315 3.40655e-18
3730.00000 5.79083e-18
3731.99684 5.23978e-18
3734.00388 5.94081e-18
3736.00073 2.46691e-18
3737.99758 7.70752e-20
3740.00461 3.76719e-18
3742.00146 4.01020e-18
3743.99831 3.09201e-18
3745.99516 2.61986e-18
3748.00219 2.07107e-18
3749.99904 3.05287e-18
3751.99589 2.64935e-18
3754.00292 3.32914e-18
3755.99977 5.93497e-18
3757.99662 3.45744e-18
3760.00366 3.56255e-18
3762.00050 3.47283e-18
3763.99735 4.93103e-18
3766.00439 3.63460e-18
3768.00124 1.75995e-18
3769.99808 3.27030e-18
3772.00512 3.49297e-18
3774.00197 2.13327e-18
3775.99882 4.07516e-18
3777.99566 3.99483e-18
3780.00270 3.91451e-18
3781.99955 3.84288e-18
3783.99640 3.77127e-18
3786.00343 3.69968e-18
3788.00028 3.62810e-18
3789.99713 3.55652e-18
3792.00416 3.48496e-18
3794.00101 3.41341e-18
3795.99786 3.34187e-18
3798.00490 3.27036e-18
3800.00174 3.19885e-18
3801.99859 3.12735e-18
3803.99544 3.05586e-18
3806.00248 2.98439e-18
3807.99932 2.91293e-18
3809.99617 2.84148e-18
3812.00321 2.77004e-18
3814.00006 2.69861e-18
3815.99690 2.62720e-18
3818.00394 2.55579e-18
3820.00079 2.84564e-18
3821.99764 2.65280e-18
3824.00467 2.95305e-18
3826.00152 2.78205e-18
3827.99837 2.87863e-18
3829.99522 3.26236e-18
3832.00225 2.86291e-18
3833.99910 3.03506e-18
3835.99595 3.38238e-18
3838.00298 4.80702e-18
3839.99983 3.90996e-18
3841.99668 3.81374e-18
3844.00372 3.49037e-18
3846.00056 3.95329e-18
3847.99741 4.27115e-18
3850.00445 3.31863e-18
3852.00130 3.90174e-18
3853.99814 4.16926e-18
3855.99499 4.52361e-18
3858.00203 5.01733e-18
3859.99888 5.12890e-18
3861.99572 4.28535e-18
3864.00276 3.21098e-18
3865.99961 3.57164e-18
3867.99646 5.12714e-18
3870.00349 4.50007e-18
3872.00034 4.43942e-18
3873.99719 5.86033e-18
3876.00422 6.70222e-18
3878.00107 5.82832e-18
3879.99792 5.70383e-18
3881.99477 5.73156e-18
3884.00180 5.98961e-18
3885.99865 4.97520e-18
3887.99550 4.28943e-18
3890.00254 4.22571e-18
3891.99938 5.07356e-18
3893.99623 4.58738e-18
3896.00327 5.46866e-18
3898.00012 5.16108e-18
3899.99696 4.95086e-18
3902.00400 5.94930e-18
3904.00085 6.71138e-18
3905.99770 7.01701e-18
3908.00473 6.36437e-18
3910.00158 6.39464e-18
3911.99843 5.83109e-18
3913.99528 6.12258e-18
3916.00231 6.02084e-18
3917.99916 6.01454e-18
3919.99601 6.06930e-18
3922.00304 5.71573e-18
3923.99989 5.62090e-18
3925.99674 7.14060e-18
3928.00378 6.26921e-18
3930.00062 5.55461e-18
3931.99747 6.11166e-18
3934.00451 5.83838e-18
3936.00136 5.67941e-18
3937.99820 6.39135e-18
3939.99505 7.58940e-18
3942.00209 7.22410e-18
3943.99894 6.76945e-18
3945.99578 6.36182e-18
3948.00282 6.09596e-18
3949.99967 6.87646e-18
3951.99652 7.21152e-18
3954.00355 6.51649e-18
3956.00040 7.05977e-18
3957.99725 7.70890e-18
3960.00428 7.47656e-18
3962.00113 8.25751e-18
3963.99798 7.62483e-18
3965.99483 6.65894e-18
3968.00186 6.47710e-18
3969.99871 7.69996e-18
3971.99556 7.31729e-18
3974.00260 7.39542e-18
3975.99944 7.45014e-18
3977.99629 7.70543e-18
3980.00333 7.78303e-18
3982.00018 7.65240e-18
3983.99702 7.27999e-18
3986.00406 7.64049e-18
3988.00091 7.71515e-18
3989.99776 7.26830e-18
3992.00479 7.75717e-18
3994.00164 8.21988e-18
3995.99849 7.78046e-18
3997.99534 6.59903e-18
4000.00237 6.98110e-18
4001.99922 7.14623e-18
4003.99607 7.66704e-18
4006.00310 6.80608e-18
4007.99995 6.92228e-18
4009.99680 7.79362e-18
4012.00384 7.45767e-18
4014.00068 6.91770e-18
4015.99753 7.07489e-18
4018.00457 7.67617e-18
4020.00142 7.78427e-18
4021.99826 7.45853e-18
4023.99511 7.42125e-18
4026.00215 7.38464e-18
4027.99900 7.56886e-18
4029.99584 7.27323e-18
4032.00288 7.38683e-18
4033.99973 6.97096e-18
4035.99658 7.21275e-18
4038.00361 7.28996e-18
4040.00046 7.20032e-18
4041.99731 7.37401e-18
4044.00434 8.12836e-18
4046.00119 8.77282e-18
4047.99804 8.00801e-18
4049.99489 7.59981e-18
4052.00192 7.15219e-18
4053.99877 7.31964e-18
4055.99562 7.12354e-18
4058.00266 7.15605e-18
4059.99950 6.96364e-18
4061.99635 6.84531e-18
4064.00339 7.38251e-18
4066.00024 7.26589e-18
4067.99708 6.98252e-18
4070.00412 6.93446e-18
4072.00097 6.70863e-18
4073.99782 6.82328e-18
4076.00485 7.78500e-18
4078.00170 7.94393e-18
4079.99855 7.12523e-18
4081.99540 6.91279e-18
4084.00243 7.35440e-18
4085.99928 7.43667e-18
4087.99613 7.09050e-18
4090.00316 7.53430e-18
4092.00001 7.02018e-18
4093.99686 7.98254e-18
4096.00390 7.74033e-18
4098.00074 7.19617e-18
4099.99759 7.17146e-18
4102.00463 7.56439e-18
4104.00148 7.22549e-18
4105.99832 7.24339e-18
4107.99517 7.42589e-18
4110.00221 6.57022e-18
4111.99906 7.04874e-18
4113.99590 7.30315e-18
4116.00294 6.90725e-18
4117.99979 6.35705e-18
4119.99664 6.88555e-18
4122.00367 6.83050e-18
4124.00052 6.58984e-18
4125.99737 7.09294e-18
4128.00440 7.11782e-18
4130.00125 6.92344e-18
4131.99810 6.55968e-18
4133.99495 6.24722e-18
4136.00198 6.79171e-18
4137.99883 7.17640e-18
4139.99568 6.56366e-18
4142.00272 7.22183e-18
4143.99956 6.98443e-18
4145.99641 6.94327e-18
4148.00345 7.22647e-18
4150.00030 6.42341e-18
4151.99714 6.61168e-18
4154.00418 6.55152e-18
4156.00103 6.43275e-18
4157.99788 6.53506e-18
4160.00491 6.06017e-18
4162.00176 5.93571e-18
4163.99861 6.39806e-18
4165.99546 6.26192e-18
4168.00249 6.08072e-18
4169.99934 5.67306e-18
4171.99619 5.75838e-18
4174.00322 6.51789e-18
4176.00007 7.91408e-18
4177.99692 8.51889e-18
4180.00396 8.50147e-18
4182.00080 8.18956e-18
4183.99765 6.48975e-18
4186.00469 6.48349e-18
4188.00154 6.61839e-18
4189.99838 6.26790e-18
4191.99523 6.41236e-18
4194.00227 6.51263e-18
4195.99912 6.21822e-18
4197.99596 6.24898e-18
4200.00300 6.37311e-18
4201.99985 6.66632e-18
4203.99670 6.60012e-18
4206.00373 6.60787e-18
4208.00058 6.60055e-18
4209.99743 6.04788e-18
4212.00446 6.39639e-18
4214.00131 6.52915e-18
4215.99816 6.35072e-18
4218.00520 6.24750e-18
4220.00204 6.76057e-18
4221.99889 6.39844e-18
4223.99574 6.93218e-18
4226.00278 6.91833e-18
4227.99962 6.48790e-18
4229.99647 6.60872e-18
4232.00351 6.57129e-18
4234.00036 6.16848e-18
4235.99720 5.79613e-18
4238.00424 5.80096e-18
4240.00109 6.33559e-18
4241.99794 6.06805e-18
4244.00497 5.99485e-18
4246.00182 6.36212e-18
4247.99867 6.16248e-18
4249.99552 6.53208e-18
4252.00255 6.47915e-18
4253.99940 6.04147e-18
4255.99625 5.80797e-18
4258.00328 5.99171e-18
4260.00013 6.51026e-18
4261.99698 6.55747e-18
4264.00402 6.89861e-18
4266.00086 6.56180e-18
4267.99771 6.09985e-18
4270.00475 5.79028e-18
4272.00160 5.57572e-18
4273.99844 5.98777e-18
4275.99529 6.15548e-18
4278.00233 6.51265e-18
4279.99918 6.45274e-18
4281.99602 6.57892e-18
4284.00306 6.09015e-18
4285.99991 6.41160e-18
4287.99676 6.56502e-18
4290.00379 6.69129e-18
4292.00064 6.39770e-18
4293.99749 6.08875e-18
4296.00452 6.33530e-18
4298.00137 6.12082e-18
4299.99822 6.01107e-18
4301.99507 6.23614e-18
4304.00210 6.21636e-18
4305.99895 6.05358e-18
4307.99580 6.31351e-18
4310.00284 6.61947e-18
4311.99968 6.42431e-18
4313.99653 6.26913e-18
4316.00357 6.03247e-18
4318.00042 6.84952e-18
4319.99726 6.10173e-18
4322.00430 5.85835e-18
4324.00115 6.66832e-18
4325.99800 6.59502e-18
4327.99484 6.40990e-18
4330.00188 6.09552e-18
4331.99873 6.31515e-18
4333.99558 6.52969e-18
4336.00261 6.41696e-18
4337.99946 6.52554e-18
4339.99631 6.14741e-18
4342.00334 6.07149e-18
4344.00019 6.65164e-18
4345.99704 6.07518e-18
4348.00408 5.81595e-18
4350.00092 5.89120e-18
4351.99777 6.30257e-18
4354.00481 6.06265e-18
4356.00166 5.88434e-18
4357.99850 6.27066e-18
4359.99535 6.20888e-18
4362.00239 5.64888e-18
4363.99924 5.92705e-18
4365.99608 6.05653e-18
4368.00312 6.16628e-18
4369.99997 5.62904e-18
4371.99682 6.04195e-18
4374.00385 6.45304e-18
4376.00070 5.70603e-18
4377.99755 5.91565e-18
4380.00458 5.84295e-18
4382.00143 5.48385e-18
4383.99828 5.81019e-18
4385.99513 5.83699e-18
4388.00216 5.28539e-18
4389.99901 5.48026e-18
4391.99586 5.80912e-18
4394.00290 5.39749e-18
4395.99974 5.51960e-18
4397.99659 5.35311e-18
4400.00363 5.28757e-18
4402.00048 5.50245e-18
4403.99732 5.07082e-18
4406.00436 4.96452e-18
4408.00121 5.25111e-18
4409.99806 5.37132e-18
4411.99490 5.71808e-18
4414.00194 5.48847e-18
4415.99879 5.54337e-18
4417.99564 5.59826e-18
4420.00267 5.65314e-18
4421.99952 5.70801e-18
4423.99637 5.76287e-18
4426.00340 5.81773e-18
4428.00025 5.87257e-18
4429.99710 5.92741e-18
4432.00414 5.98224e-18
4434.00098 6.03705e-18
4435.99783 6.09188e-18
4437.99468 6.14667e-18
4440.00172 6.20148e-18
4441.99856 6.25626e-18
4443.99541 6.31105e-18
4446.00245 6.36581e-18
4447.99930 6.42057e-18
4449.99614 6.47533e-18
4452.00318 6.53007e-18
4454.00003 6.58482e-18
4455.99688 6.63954e-18
4458.00391 6.69425e-18
4460.00076 6.74897e-18
4461.99761 6.80367e-18
4464.00464 6.85837e-18
4466.00149 6.91305e-18
4467.99834 6.96774e-18
4469.99519 7.02240e-18
4472.00222 7.07706e-18
4473.99907 7.13172e-18
4475.99592 7.18636e-18
4478.00296 7.07465e-18
4479.99980 7.21536e-18
4481.99665 7.33973e-18
4484.00369 7.38948e-18
4486.00054 7.67475e-18
4487.99738 7.42613e-18
4490.00442 7.42938e-18
4492.00127 7.34294e-18
4493.99812 7.64467e-18
4495.99496 7.18354e-18
4498.00200 8.27351e-18
4499.99885 7.94666e-18
4501.99570 7.77829e-18
4504.00273 7.67231e-18
4505.99958 7.98005e-18
4507.99643 7.86440e-18
4510.00346 8.15039e-18
4512.00031 8.21409e-18
4513.99716 7.51098e-18
4516.00420 7.71119e-18
4518.00104 8.25935e-18
4519.99789 8.26200e-18
4522.00493 8.29481e-18
4524.00178 8.61648e-18
4525.99862 8.51923e-18
4527.99547 8.21211e-18
4530.00251 8.29616e-18
4531.99936 8.83244e-18
4533.99620 8.70735e-18
4536.00324 9.04836e-18
4538.00009 8.82563e-18
4539.99694 9.28118e-18
4542.00397 9.49736e-18
4544.00082 9.35387e-18
4545.99767 9.21075e-18
4548.00470 9.87765e-18
4550.00155 9.62551e-18
4551.99840 1.02003e-17
4553.99525 1.05786e-17
4556.00228 1.06565e-17
4557.99913 1.06553e-17
4559.99598 9.85422e-18
4562.00302 1.00860e-17
4563.99986 1.03750e-17
4565.99671 1.07584e-17
4568.00375 1.08863e-17
4570.00060 1.11714e-17
4571.99744 1.15309e-17
4574.00448 1.15197e-17
4576.00133 1.18335e-17
4577.99818 1.13171e-17
4579.99502 1.17117e-17
4582.00206 1.20805e-17
4583.99891 1.18250e-17
4585.99576 1.20879e-17
4588.00279 1.24937e-17
4589.99964 1.24281e-17
4591.99649 1.16491e-17
4594.00352 1.23076e-17
4596.00037 1.27075e-17
4597.99722 1.26704e-17
4600.00426 1.29654e-17
4602.00110 1.23105e-17
4603.99795 1.29239e-17
4605.99480 1.30788e-17
4608.00184 1.25733e-17
4609.99868 1.32925e-17
4611.99553 1.33709e-17
4614.00257 1.25073e-17
4615.99942 1.36412e-17
4617.99626 1.33502e-17
4620.00330 1.32675e-17
4622.00015 1.29858e-17
4623.99700 1.32901e-17
4626.00403 1.34378e-17
4628.00088 1.36899e-17
4629.99773 1.39210e-17
4632.00476 1.36790e-17
4634.00161 1.34064e-17
4635.99846 1.30758e-17
4637.99531 1.32737e-17
4640.00234 1.33081e-17
4641.99919 1.39174e-17
4643.99604 1.37821e-17
4646.00308 1.31029e-17
4647.99992 1.32879e-17
4649.99677 1.36410e-17
4652.00381 1.37317e-17
4654.00066 1.36385e-17
4655.99750 1.39203e-17
4658.00454 1.38037e-17
4660.00139 1.33802e-17
4661.99824 1.34233e-17
4663.99508 1.32309e-17
4666.00212 1.31683e-17
4667.99897 1.32356e-17
4669.99582 1.27383e-17
4672.00285 1.23248e-17
4673.99970 1.26849e-17
4675.99655 1.27117e-17
4678.00358 1.28407e-17
4680.00043 1.22474e-17
4681.99728 1.21226e-17
4684.00432 1.25920e-17
4686.00116 1.24203e-17
4687.99801 1.18277e-17
4690.00505 1.15726e-17
4692.00190 1.20134e-17
4693.99874 1.21893e-17
4695.99559 1.10407e-17
4698.00263 1.09630e-17
4699.99948 1.08678e-17
4701.99632 1.12549e-17
4704.00336 1.11124e-17
4706.00021 1.10269e-17
4707.99706 1.10900e-17
4710.00409 1.05117e-17
4712.00094 1.05871e-17
4713.99779 1.07383e-17
4716.00482 1.05999e-17
4718.00167 1.02155e-17
4719.99852 1.02066e-17
4721.99537 1.01961e-17
4724.00240 1.00760e-17
4725.99925 9.88771e-18
4727.99610 9.56902e-18
4730.00314 1.01890e-17
4731.99998 9.58683e-18
4733.99683 1.01121e-17
4736.00387 9.57368e-18
4738.00072 9.47844e-18
4739.99756 9.90565e-18
4742.00460 9.72246e-18
4744.00145 9.27132e-18
4745.99830 9.59075e-18
4747.99514 9.36172e-18
4750.00218 9.22348e-18
4751.99903 9.07910e-18
4753.99588 8.83268e-18
4756.00291 8.85384e-18
4757.99976 8.94998e-18
4759.99661 8.51915e-18
4762.00364 8.40858e-18
4764.00049 8.75959e-18
4765.99734 8.72539e-18
4768.00438 8.40318e-18
4770.00122 8.38233e-18
4771.99807 8.51692e-18
4773.99492 8.46359e-18
4776.00196 8.19652e-18
4777.99880 7.64262e-18
4779.99565 8.05369e-18
4782.00269 7.93741e-18
4783.99954 7.83030e-18
4785.99638 7.93659e-18
4788.00342 8.11008e-18
4790.00027 7.96791e-18
4791.99712 7.75323e-18
4794.00415 8.00373e-18
4796.00100 7.90031e-18
4797.99785 8.18681e-18
4800.00488 8.21235e-18
4802.00173 7.83022e-18
4803.99858 8.51092e-18
4805.99543 8.50816e-18
4808.00246 8.63868e-18
4809.99931 8.34964e-18
4811.99616 8.12005e-18
4814.00320 8.68324e-18
4816.00004 8.62554e-18
4817.99689 8.25829e-18
4820.00393 8.17514e-18
4822.00078 8.64686e-18
4823.99762 8.15069e-18
4826.00466 8.29825e-18
4828.00151 8.28160e-18
4829.99836 8.75300e-18
4831.99520 8.22002e-18
4834.00224 8.49246e-18
4835.99909 8.48839e-18
4837.99594 8.62720e-18
4840.00297 8.41669e-18
4841.99982 9.01437e-18
4843.99667 8.55372e-18
4846.00370 8.18393e-18
4848.00055 8.48521e-18
4849.99740 8.21998e-18
4852.00444 8.39949e-18
4854.00128 8.15745e-18
4855.99813 8.32157e-18
4857.99498 8.18767e-18
4860.00202 8.24582e-18
4861.99886 8.26284e-18
4863.99571 8.34379e-18
4866.00275 8.39306e-18
4867.99960 8.00124e-18
4869.99644 8.01662e-18
4872.00348 8.18687e-18
4874.00033 8.44260e-18
4875.99718 8.00300e-18
4878.00421 7.98176e-18
4880.00106 8.21465e-18
4881.99791 8.44426e-18
4884.00494 8.39298e-18
4886.00179 8.29597e-18
4887.99864 8.40946e-18
4889.99549 8.57264e-18
4892.00252 8.46628e-18
4893.99937 8.33085e-18
4895.99622 8.72734e-18
4898.00326 8.79871e-18
4900.00010 8.65041e-18
4901.99695 8.69172e-18
4904.00399 8.80967e-18
4906.00084 8.99019e-18
4907.99768 9.32371e-18
4910.00472 9.43948e-18
4912.00157 9.39668e-18
4913.99842 9.55394e-18
4915.99526 9.60070e-18
4918.00230 1.00969e-17
4919.99915 9.77570e-18
4921.99600 9.76343e-18
4924.00303 1.00723e-17
4925.99988 1.03468e-17
4927.99673 1.00856e-17
4930.00376 1.02834e-17
4932.00061 1.00886e-17
4933.99746 1.01997e-17
