# wavelength flux
3719.99538 1.37891e-17
3721.50320 1.23456e-17
3723.00084 1.32969e-17
3724.49848 1.71736e-17
3725.99611 1.53416e-17
3727.50394 1.24930e-17
3729.00157 1.13400e-17
3730.49921 1.20558e-17
3731.99684 1.25600e-17
3733.50467 1.26602e-17
3735.00230 1.06616e-17
3736.49994 1.02030e-17
3737.99758 1.48258e-17
3739.49521 1.31781e-17
3741.00304 1.26796e-17
3742.50067 1.09664e-17
3743.99831 1.43775e-17
3745.49594 1.40061e-17
3747.00377 1.13198e-17
3748.50140 1.12018e-17
3749.99904 9.76195e-18
3751.49668 1.14154e-17
3753.00450 1.43762e-17
3754.50214 1.36071e-17
3755.99977 1.17042e-17
3757.49741 1.15256e-17
3758.99504 1.23970e-17
3760.50287 1.26351e-17
3762.00050 1.32964e-17
3763.49814 1.12566e-17
3764.99578 1.21005e-17
3766.50360 1.39497e-17
3768.00124 1.27222e-17
3769.49887 1.24290e-17
3770.99651 1.25359e-17
3772.50433 1.26428e-17
3774.00197 1.24613e-17
3775.49960 1.30488e-17
3776.99724 1.11829e-17
3778.49488 1.11700e-17
3780.00270 1.11571e-17
3781.50034 1.12355e-17
3782.99797 1.13139e-17
3784.49561 1.13923e-17
3786.00343 1.14706e-17
3787.50107 1.15490e-17
3788.99870 1.16273e-17
3790.49634 1.17057e-17
3792.00416 1.17840e-17
3793.50180 1.18624e-17
3794.99944 1.19407e-17
3796.49707 1.20190e-17
3798.00490 1.20973e-17
3799.50253 1.21756e-17
3801.00017 1.22539e-17
3802.49780 1.23322e-17
3803.99544 1.24105e-17
3805.50326 1.24887e-17
3807.00090 1.25670e-17
3808.49854 1.26453e-17
3809.99617 1.27235e-17
3811.50400 1.28017e-17
3813.00163 1.28800e-17
3814.49927 1.29582e-17
3815.99690 1.30364e-17
3817.50473 1.31146e-17
3819.00236 1.28937e-17
3820.50000 1.23109e-17
3821.99764 1.15453e-17
3823.49527 1.17597e-17
3825.00310 1.16594e-17
3826.50073 1.15514e-17
3827.99837 1.27418e-17
3829.49600 1.27800e-17
3831.00383 1.19157e-17
3832.50146 1.29878e-17
3833.99910 1.39553e-17
3835.49674 1.18871e-17
3837.00456 1.20514e-17
3838.50220 1.31602e-17
3839.99983 1.23393e-17
3841.49747 1.17128e-17
3842.99510 1.25179e-17
3844.50293 1.24601e-17
3846.00056 1.27409e-17
3847.49820 1.26073e-17
3848.99584 1.19437e-17
3850.50366 1.16539e-17
3852.00130 1.27012e-17
3853.49893 1.39970e-17
3854.99657 1.35454e-17
3856.50439 1.41293e-17
3858.00203 1.57869e-17
3859.49966 1.50072e-17
3860.99730 1.33888e-17
3862.49494 1.26480e-17
3864.00276 1.26444e-17
3865.50040 1.38445e-17
3866.99803 1.32253e-17
3868.49567 1.26061e-17
3870.00349 1.26054e-17
3871.50113 1.27670e-17
3872.99876 1.23331e-17
3874.49640 1.22490e-17
3876.00422 1.51531e-17
3877.50186 1.32170e-17
3878.99950 1.20179e-17
3880.49713 1.17563e-17
3881.99477 1.34285e-17
3883.50259 1.31755e-17
3885.00023 1.39865e-17
3886.49786 1.41008e-17
3887.99550 1.27501e-17
3889.50332 1.37276e-17
3891.00096 1.44638e-17
3892.49860 1.25154e-17
3893.99623 1.36291e-17
3895.50406 1.47807e-17
3897.00169 1.35217e-17
3898.49933 1.34559e-17
3899.99696 1.43725e-17
3901.50479 1.35155e-17
3903.00242 1.28576e-17
3904.50006 1.36550e-17
3905.99770 1.37702e-17
3907.49533 1.36774e-17
3909.00316 1.46550e-17
3910.50079 1.43700e-17
3911.99843 1.33902e-17
3913.49606 1.39920e-17
3915.00389 1.41675e-17
3916.50152 1.33602e-17
3917.99916 1.41691e-17
3919.49680 1.52020e-17
3921.00462 1.49442e-17
3922.50226 1.46673e-17
3923.99989 1.22845e-17
3925.49753 1.27595e-17
3926.99516 1.52660e-17
3928.50299 1.52739e-17
3930.00062 1.33932e-17
3931.49826 1.18689e-17
3932.99590 1.23535e-17
3934.50372 1.39174e-17
3936.00136 1.39295e-17
3937.49899 1.28926e-17
3938.99663 1.56897e-17
3940.50445 1.38261e-17
3942.00209 1.34781e-17
3943.49972 1.16068e-17
3944.99736 1.10948e-17
3946.49500 1.35642e-17
3948.00282 1.34649e-17
3949.50046 1.33147e-17
3950.99809 1.42028e-17
3952.49573 1.23061e-17
3954.00355 1.35165e-17
3955.50119 1.39746e-17
3956.99882 1.22073e-17
3958.49646 1.29082e-17
3960.00428 1.31494e-17
3961.50192 1.31838e-17
3962.99956 1.47743e-17
3964.49719 1.66295e-17
3965.99483 1.53014e-17
3967.50265 1.48841e-17
3969.00029 1.52812e-17
3970.49792 1.50736e-17
3971.99556 1.42081e-17
3973.50338 1.36444e-17
3975.00102 1.32151e-17
3976.49866 1.38542e-17
3977.99629 1.35678e-17
3979.50412 1.31312e-17
3981.00175 1.35157e-17
3982.49939 1.39867e-17
3983.99702 1.49817e-17
3985.50485 1.47405e-17
3987.00248 1.40217e-17
3988.50012 1.42430e-17
3989.99776 1.38716e-17
3991.49539 1.45561e-17
3993.00322 1.43875e-17
3994.50085 1.39373e-17
3995.99849 1.41733e-17
3997.49612 1.39407e-17
3999.00395 1.44913e-17
4000.50158 1.30237e-17
4001.99922 1.25198e-17
4003.49686 1.46620e-17
4005.00468 1.39694e-17
4006.50232 1.36988e-17
4007.99995 1.29215e-17
4009.49759 1.25213e-17
4010.99522 1.32940e-17
4012.50305 1.38870e-17
4014.00068 1.48944e-17
4015.49832 1.47077e-17
4016.99596 1.31080e-17
4018.50378 1.34587e-17
4020.00142 1.42383e-17
4021.49905 1.48655e-17
4022.99669 1.43668e-17
4024.50451 1.39952e-17
4026.00215 1.36870e-17
4027.49978 1.37588e-17
4028.99742 1.43068e-17
4030.49506 1.43014e-17
4032.00288 1.37558e-17
4033.50052 1.25047e-17
4034.99815 1.25236e-17
4036.49579 1.29965e-17
4038.00361 1.39998e-17
4039.50125 1.49365e-17
4040.99888 1.47469e-17
4042.49652 1.39959e-17
4044.00434 1.40415e-17
4045.50198 1.36245e-17
4046.99962 1.45081e-17
4048.49725 1.51190e-17
4049.99489 1.38917e-17
4051.50271 1.35979e-17
4053.00035 1.40411e-17
4054.49798 1.57121e-17
4055.99562 1.48966e-17
4057.50344 1.45347e-17
4059.00108 1.58017e-17
4060.49872 1.59215e-17
4061.99635 1.41227e-17
4063.50418 1.45222e-17
4065.00181 1.52372e-17
4066.49945 1.43490e-17
4067.99708 1.44736e-17
4069.50491 1.44583e-17
4071.00254 1.50986e-17
4072.50018 1.61209e-17
4073.99782 1.63740e-17
4075.49545 1.48993e-17
4077.00328 1.43026e-17
4078.50091 1.38278e-17
4079.99855 1.26140e-17
4081.49618 1.32328e-17
4083.00401 1.42655e-17
4084.50164 1.45857e-17
4085.99928 1.45502e-17
4087.49692 1.55648e-17
4089.00474 1.47034e-17
4090.50238 1.38051e-17
4092.00001 1.57691e-17
4093.49765 1.67552e-17
4094.99528 1.51186e-17
4096.50311 1.45847e-17
4098.00074 1.37006e-17
4099.49838 1.39391e-17
4100.99602 1.55607e-17
4102.50384 1.43951e-17
4104.00148 1.39660e-17
4105.49911 1.49540e-17
4106.99675 1.42436e-17
4108.50457 1.51896e-17
4110.00221 1.53392e-17
4111.49984 1.31558e-17
4112.99748 1.29759e-17
4114.49512 1.41809e-17
4116.00294 1.59706e-17
4117.50058 1.56907e-17
4118.99821 1.39184e-17
4120.49585 1.42675e-17
4122.00367 1.40540e-17
4123.50131 1.34169e-17
4124.99894 1.37206e-17
4126.49658 1.40413e-17
4128.00440 1.40072e-17
4129.50204 1.47837e-17
4130.99968 1.42599e-17
4132.49731 1.43896e-17
4133.99495 1.39797e-17
4135.50277 1.33408e-17
4137.00041 1.43994e-17
4138.49804 1.38568e-17
4139.99568 1.34024e-17
4141.50350 1.29598e-17
4143.00114 1.32227e-17
4144.49878 1.51382e-17
4145.99641 1.39623e-17
4147.50424 1.37801e-17
4149.00187 1.57824e-17
4150.49951 1.56983e-17
4151.99714 1.29072e-17
4153.49478 1.24241e-17
4155.00260 1.41988e-17
4156.50024 1.50578e-17
4157.99788 1.30480e-17
4159.49551 1.47798e-17
4161.00334 1.40838e-17
4162.50097 1.35911e-17
4163.99861 1.33191e-17
4165.49624 1.40095e-17
4167.00407 1.42816e-17
4168.50170 1.42669e-17
4169.99934 1.28074e-17
4171.49698 1.30132e-17
4173.00480 1.41159e-17
4174.50244 1.42178e-17
4176.00007 1.43610e-17
4177.49771 1.60310e-17
4178.99534 1.67592e-17
4180.50317 1.71163e-17
4182.00080 1.56986e-17
4183.49844 1.43839e-17
4184.99608 1.45472e-17
4186.50390 1.33698e-17
4188.00154 1.38296e-17
4189.49917 1.59122e-17
4190.99681 1.49563e-17
4192.50463 1.39976e-17
4194.00227 1.48372e-17
4195.49990 1.46860e-17
4196.99754 1.35619e-17
4198.49518 1.39820e-17
4200.00300 1.45722e-17
4201.50064 1.41342e-17
4202.99827 1.27103e-17
4204.49591 1.42044e-17
4206.00373 1.46321e-17
4207.50137 1.43022e-17
4208.99900 1.38379e-17
4210.49664 1.46803e-17
4212.00446 1.48785e-17
4213.50210 1.37075e-17
4214.99974 1.22041e-17
4216.49737 1.14879e-17
4218.00520 1.24588e-17
4219.50283 1.40468e-17
4221.00047 1.38050e-17
4222.49810 1.34187e-17
4223.99574 1.33421e-17
4225.50356 1.28300e-17
4227.00120 1.27536e-17
4228.49884 1.37550e-17
4229.99647 1.28495e-17
4231.50430 1.24695e-17
4233.00193 1.39427e-17
4234.49957 1.34327e-17
4235.99720 1.32749e-17
4237.50503 1.34983e-17
4239.00266 1.38916e-17
4240.50030 1.39912e-17
4241.99794 1.33994e-17
4243.49557 1.36120e-17
4245.00340 1.30976e-17
4246.50103 1.21335e-17
4247.99867 1.15440e-17
4249.49630 1.23471e-17
4251.00413 1.39027e-17
4252.50176 1.40200e-17
4253.99940 1.31807e-17
4255.49704 1.25470e-17
4257.00486 1.19681e-17
4258.50250 1.26018e-17
4260.00013 1.30992e-17
4261.49777 1.38832e-17
4262.99540 1.39272e-17
4264.50323 1.25382e-17
4266.00086 1.28599e-17
4267.49850 1.40725e-17
4268.99614 1.37256e-17
4270.50396 1.26665e-17
4272.00160 1.20651e-17
4273.49923 1.16827e-17
4274.99687 1.22720e-17
4276.50469 1.32685e-17
4278.00233 1.35712e-17
4279.49996 1.26211e-17
4280.99760 1.30000e-17
4282.49524 1.22679e-17
4284.00306 1.25428e-17
4285.50070 1.33322e-17
4286.99833 1.22060e-17
4288.49597 1.31802e-17
4290.00379 1.26525e-17
4291.50143 1.25331e-17
4292.99906 1.28878e-17
4294.49670 1.26901e-17
4296.00452 1.21574e-17
4297.50216 1.27726e-17
4298.99980 1.23388e-17
4300.49743 1.30061e-17
4301.99507 1.28199e-17
4303.50289 1.30553e-17
4305.00053 1.24727e-17
4306.49816 1.23769e-17
4307.99580 1.23251e-17
4309.50362 1.20330e-17
4311.00126 1.20187e-17
4312.49890 1.09875e-17
4313.99653 1.14275e-17
4315.50436 1.23884e-17
4317.00199 1.28856e-17
4318.49963 1.24035e-17
4319.99726 1.19849e-17
4321.49490 1.16736e-17
4323.00272 1.27741e-17
4324.50036 1.27300e-17
4325.99800 1.16124e-17
4327.49563 1.25341e-17
4329.00346 1.34832e-17
4330.50109 1.32127e-17
4331.99873 1.18244e-17
4333.49636 1.17955e-17
4335.00419 1.26624e-17
4336.50182 1.23049e-17
4337.99946 1.24918e-17
4339.49710 1.38003e-17
4341.00492 1.24151e-17
4342.50256 1.12962e-17
4344.00019 1.25686e-17
4345.49783 1.27844e-17
4346.99546 1.26320e-17
4348.50329 1.20121e-17
4350.00092 1.25265e-17
4351.49856 1.30174e-17
4352.99620 1.24555e-17
4354.50402 1.30364e-17
4356.00166 1.34548e-17
4357.49929 1.27649e-17
4358.99693 1.26345e-17
4360.50475 1.29241e-17
4362.00239 1.29837e-17
4363.50002 1.36224e-17
4364.99766 1.41483e-17
4366.49530 1.27342e-17
4368.00312 1.26304e-17
4369.50076 1.41018e-17
4370.99839 1.31373e-17
4372.49603 1.38036e-17
4374.00385 1.29024e-17
4375.50149 1.23113e-17
4376.99912 1.35556e-17
4378.49676 1.42703e-17
4380.00458 1.29658e-17
4381.50222 1.23034e-17
4382.99986 1.26149e-17
4384.49749 1.29968e-17
4385.99513 1.30387e-17
4387.50295 1.29029e-17
4389.00059 1.31801e-17
4390.49822 1.41212e-17
4391.99586 1.38080e-17
4393.50368 1.32598e-17
4395.00132 1.36090e-17
4396.49896 1.37572e-17
4397.99659 1.38378e-17
4399.50442 1.35970e-17
4401.00205 1.28330e-17
4402.49969 1.35130e-17
4403.99732 1.32857e-17
4405.50515 1.32867e-17
4407.00278 1.44881e-17
4408.50042 1.45032e-17
4409.99806 1.40045e-17
4411.49569 1.37529e-17
4413.00352 1.37977e-17
4414.50115 1.39232e-17
4415.99879 1.39632e-17
4417.49642 1.40032e-17
4419.00425 1.40431e-17
4420.50188 1.40831e-17
4421.99952 1.41231e-17
4423.49716 1.41631e-17
4425.00498 1.42030e-17
4426.50262 1.42430e-17
4428.00025 1.42829e-17
4429.49789 1.43229e-17
4430.99552 1.43628e-17
4432.50335 1.44028e-17
4434.00098 1.44427e-17
4435.49862 1.44827e-17
4436.99626 1.45226e-17
4438.50408 1.45625e-17
4440.00172 1.46024e-17
4441.49935 1.46423e-17
4442.99699 1.46822e-17
4444.50481 1.47221e-17
4446.00245 1.47620e-17
4447.50008 1.48019e-17
4448.99772 1.48418e-17
4450.49536 1.48817e-17
4452.00318 1.49216e-17
4453.50082 1.49614e-17
4454.99845 1.50013e-17
4456.49609 1.50412e-17
4458.00391 1.50810e-17
4459.50155 1.51209e-17
4460.99918 1.51607e-17
4462.49682 1.52006e-17
4464.00464 1.52404e-17
4465.50228 1.52802e-17
4466.99992 1.53201e-17
4468.49755 1.53599e-17
4469.99519 1.53997e-17
4471.50301 1.54395e-17
4473.00065 1.54793e-17
4474.49828 1.55191e-17
4475.99592 1.55589e-17
4477.50374 1.46979e-17
4479.00138 1.53691e-17
4480.49902 1.40108e-17
4481.99665 1.45026e-17
4483.50448 1.55909e-17
4485.00211 1.50370e-17
4486.49975 1.52189e-17
4487.99738 1.50923e-17
4489.49502 1.50297e-17
4491.00284 1.50660e-17
4492.50048 1.44873e-17
4493.99812 1.49532e-17
4495.49575 1.52318e-17
4497.00358 1.58554e-17
4498.50121 1.58413e-17
4499.99885 1.57302e-17
4501.49648 1.53613e-17
4503.00431 1.46847e-17
4504.50194 1.49208e-17
4505.99958 1.52353e-17
4507.49722 1.45682e-17
4508.99485 1.57708e-17
4510.50268 1.55196e-17
4512.00031 1.53649e-17
4513.49795 1.50399e-17
4514.99558 1.64732e-17
4516.50341 1.61953e-17
4518.00104 1.62789e-17
4519.49868 1.51179e-17
4520.99632 1.48800e-17
4522.50414 1.58775e-17
4524.00178 1.61558e-17
4525.49941 1.54814e-17
4526.99705 1.63407e-17
4528.50487 1.61757e-17
4530.00251 1.50763e-17
4531.50014 1.52528e-17
4532.99778 1.58082e-17
4534.49542 1.59535e-17
4536.00324 1.60124e-17
4537.50088 1.57483e-17
4538.99851 1.62420e-17
4540.49615 1.59995e-17
4542.00397 1.55945e-17
4543.50161 1.60967e-17
4544.99924 1.58499e-17
4546.49688 1.55803e-17
4548.00470 1.59190e-17
4549.50234 1.68345e-17
4550.99998 1.67541e-17
4552.49761 1.63308e-17
4553.99525 1.65652e-17
4555.50307 1.63295e-17
4557.00071 1.67804e-17
4558.49834 1.62696e-17
4559.99598 1.63525e-17
4561.50380 1.66458e-17
4563.00144 1.59694e-17
4564.49908 1.63367e-17
4565.99671 1.67916e-17
4567.50454 1.66385e-17
4569.00217 1.59414e-17
4570.49981 1.64732e-17
4571.99744 1.59157e-17
4573.49508 1.51585e-17
4575.00290 1.62439e-17
4576.50054 1.61025e-17
4577.99818 1.67232e-17
4579.49581 1.75234e-17
4581.00364 1.61448e-17
4582.50127 1.61804e-17
4583.99891 1.68618e-17
4585.49654 1.66339e-17
4587.00437 1.57220e-17
4588.50200 1.53092e-17
4589.99964 1.49819e-17
4591.49728 1.56313e-17
4593.00510 1.54848e-17
4594.50274 1.44977e-17
4596.00037 1.52663e-17
4597.49801 1.62850e-17
4598.99564 1.72581e-17
4600.50347 1.62148e-17
4602.00110 1.57665e-17
4603.49874 1.65030e-17
4604.99638 1.59418e-17
4606.50420 1.56823e-17
4608.00184 1.57315e-17
4609.49947 1.50074e-17
4610.99711 1.53318e-17
4612.50493 1.63245e-17
4614.00257 1.62850e-17
4615.50020 1.50919e-17
4616.99784 1.55303e-17
4618.49548 1.57947e-17
4620.00330 1.52686e-17
4621.50094 1.59703e-17
4622.99857 1.55814e-17
4624.49621 1.43101e-17
4626.00403 1.48319e-17
4627.50167 1.64472e-17
4628.99930 1.63723e-17
4630.49694 1.57913e-17
4632.00476 1.57174e-17
4633.50240 1.51836e-17
4635.00004 1.53182e-17
4636.49767 1.51486e-17
4637.99531 1.60179e-17
4639.50313 1.56868e-17
4641.00077 1.56952e-17
4642.49840 1.54485e-17
4643.99604 1.48866e-17
4645.50386 1.47185e-17
4647.00150 1.48016e-17
4648.49914 1.61566e-17
4649.99677 1.61794e-17
4651.50460 1.61392e-17
4653.00223 1.57438e-17
4654.49987 1.54969e-17
4655.99750 1.53836e-17
4657.49514 1.57586e-17
4659.00296 1.58755e-17
4660.50060 1.56357e-17
4661.99824 1.53406e-17
4663.49587 1.48428e-17
4665.00370 1.47627e-17
4666.50133 1.46376e-17
4667.99897 1.46869e-17
4669.49660 1.47822e-17
4671.00443 1.47044e-17
4672.50206 1.45917e-17
4673.99970 1.44046e-17
4675.49734 1.45366e-17
4676.99497 1.49704e-17
4678.50280 1.46187e-17
4680.00043 1.41146e-17
4681.49807 1.40043e-17
4682.99570 1.43074e-17
4684.50353 1.48217e-17
4686.00116 1.51146e-17
4687.49880 1.50105e-17
4688.99644 1.49087e-17
4690.50426 1.47874e-17
4692.00190 1.47380e-17
4693.49953 1.36737e-17
4694.99717 1.34961e-17
4696.49480 1.43474e-17
4698.00263 1.48797e-17
4699.50026 1.49299e-17
4700.99790 1.44702e-17
4702.49554 1.42961e-17
4704.00336 1.43698e-17
4705.50100 1.46614e-17
4706.99863 1.47640e-17
4708.49627 1.49299e-17
4710.00409 1.44809e-17
4711.50173 1.40078e-17
4712.99936 1.46572e-17
4714.49700 1.38559e-17
4716.00482 1.36448e-17
4717.50246 1.35543e-17
4719.00010 1.39934e-17
4720.49773 1.40611e-17
4721.99537 1.43491e-17
4723.50319 1.39762e-17
4725.00083 1.40978e-17
4726.49846 1.41411e-17
4727.99610 1.44529e-17
4729.50392 1.33784e-17
4731.00156 1.36523e-17
4732.49920 1.40645e-17
4733.99683 1.37627e-17
4735.50466 1.34988e-17
4737.00229 1.33417e-17
4738.49993 1.37477e-17
4739.99756 1.40782e-17
4741.49520 1.44292e-17
4743.00302 1.39892e-17
4744.50066 1.36883e-17
4745.99830 1.40406e-17
4747.49593 1.38193e-17
4749.00376 1.35919e-17
4750.50139 1.40776e-17
4751.99903 1.38201e-17
4753.49666 1.25926e-17
4755.00449 1.22420e-17
4756.50212 1.27296e-17
4757.99976 1.31466e-17
4759.49740 1.31339e-17
4761.00522 1.36852e-17
4762.50286 1.39897e-17
4764.00049 1.38836e-17
4765.49813 1.39419e-17
4766.99576 1.33935e-17
4768.50359 1.30947e-17
4770.00122 1.36484e-17
4771.49886 1.30243e-17
4772.99650 1.25675e-17
4774.50432 1.31482e-17
4776.00196 1.34858e-17
4777.49959 1.29746e-17
4778.99723 1.30903e-17
4780.50505 1.27005e-17
4782.00269 1.26441e-17
4783.50032 1.25894e-17
4784.99796 1.33288e-17
4786.49560 1.30400e-17
4788.00342 1.33952e-17
4789.50106 1.38123e-17
4790.99869 1.30819e-17
4792.49633 1.25437e-17
4794.00415 1.17934e-17
4795.50179 1.23835e-17
4796.99942 1.35334e-17
4798.49706 1.43897e-17
4800.00488 1.30836e-17
4801.50252 1.32437e-17
4803.00016 1.37929e-17
4804.49779 1.39260e-17
4805.99543 1.33020e-17
4807.50325 1.29665e-17
4809.00089 1.29982e-17
4810.49852 1.31150e-17
4811.99616 1.26382e-17
4813.50398 1.20434e-17
4815.00162 1.19196e-17
4816.49926 1.28819e-17
4817.99689 1.38958e-17
4819.50472 1.35592e-17
4821.00235 1.33667e-17
4822.49999 1.33192e-17
4823.99762 1.29601e-17
4825.49526 1.29457e-17
4827.00308 1.30969e-17
4828.50072 1.28828e-17
4829.99836 1.35603e-17
4831.49599 1.35470e-17
4833.00382 1.26902e-17
4834.50145 1.32816e-17
4835.99909 1.36034e-17
4837.49672 1.25395e-17
4839.00455 1.30869e-17
4840.50218 1.25567e-17
4841.99982 1.24645e-17
4843.49746 1.21865e-17
4844.99509 1.22186e-17
4846.50292 1.27808e-17
4848.00055 1.22298e-17
4849.49819 1.29337e-17
4850.99582 1.24545e-17
4852.50365 1.24662e-17
4854.00128 1.30313e-17
4855.49892 1.30505e-17
4856.99656 1.28799e-17
4858.50438 1.28621e-17
4860.00202 1.23819e-17
4861.49965 1.19075e-17
4862.99729 1.22526e-17
4864.49492 1.21685e-17
4866.00275 1.27147e-17
4867.50038 1.27886e-17
4868.99802 1.32056e-17
4870.49566 1.30272e-17
4872.00348 1.26650e-17
4873.50112 1.22116e-17
4874.99875 1.22449e-17
4876.49639 1.25804e-17
4878.00421 1.25531e-17
4879.50185 1.24057e-17
4880.99948 1.20068e-17
4882.49712 1.22077e-17
4884.00494 1.30117e-17
4885.50258 1.28842e-17
4887.00022 1.19432e-17
4888.49785 1.22177e-17
4889.99549 1.20770e-17
4891.50331 1.23085e-17
4893.00095 1.28272e-17
4894.49858 1.23475e-17
4895.99622 1.15614e-17
4897.50404 1.14552e-17
4899.00168 1.21204e-17
4900.49932 1.26248e-17
4901.99695 1.24647e-17
4903.50478 1.21548e-17
4905.00241 1.21731e-17
4906.50005 1.20299e-17
4907.99768 1.19804e-17
4909.49532 1.21580e-17
4911.00314 1.22230e-17
4912.50078 1.16944e-17
4913.99842 1.15656e-17
4915.49605 1.14282e-17
4917.00388 1.18092e-17
4918.50151 1.11820e-17
4919.99915 1.26232e-17
4921.49678 1.28013e-17
4923.00461 1.26016e-17
4924.50224 1.20874e-17
4925.99988 1.13501e-17
4927.49752 1.09109e-17
4928.99515 1.25353e-17
4930.50298 1.32175e-17
4932.00061 1.22343e-17
4933.49825 1.19246e-17
4934.99588 1.19130e-17
4936.50371 1.19015e-17
4938.00134 1.18899e-17
4939.49898 1.18783e-17
4940.99662 1.18667e-17
4942.50444 1.18552e-17
4944.00208 1.18436e-17
4945.49971 1.18320e-17
4946.99735 1.18204e-17
4948.50517 1.18089e-17
4950.00281 1.17973e-17
4951.50044 1.17857e-17
4952.99808 1.17742e-17
4954.49572 1.17626e-17
4956.00354 1.17511e-17
4957.50118 1.17395e-17
4958.99881 1.17279e-17
4960.49645 1.17164e-17
4962.00427 1.17048e-17
4963.50191 1.16933e-17
4964.99954 1.16817e-17
4966.49718 1.16702e-17
4968.00500 1.16586e-17
4969.50264 1.16471e-17
4971.00028 1.16356e-17
4972.49791 1.16240e-17
4973.99555 1.25581e-17
4975.50337 1.25523e-17
4977.00101 1.15593e-17
4978.49864 1.25032e-17
4979.99628 1.23927e-17
4981.50410 1.23672e-17
4983.00174 1.28883e-17
4984.49938 1.26052e-17
4985.99701 1.19389e-17
4987.50484 1.18144e-17
4989.00247 1.21817e-17
4990.50011 1.22792e-17
4991.99774 1.28817e-17
4993.49538 1.26072e-17
4995.00320 1.11279e-17
4996.50084 1.13244e-17
4997.99848 1.13399e-17
4999.49611 1.18677e-17
5001.00394 1.21482e-17
5002.50157 1.20742e-17
5003.99921 1.18432e-17
5005.49684 1.18655e-17
5007.00467 1.13998e-17
5008.50230 1.16515e-17
5009.99994 1.22333e-17
5011.49758 1.19161e-17
5012.99521 1.20980e-17
5014.50304 1.19026e-17
5016.00067 1.17682e-17
5017.49831 1.25230e-17
5018.99594 1.29598e-17
5020.50377 1.28882e-17
