# wavelength flux
3650.00382 9.47999e-18
3652.00067 9.45075e-18
3653.99752 7.67671e-18
3656.00455 7.71667e-18
3658.00140 9.03685e-18
3659.99825 9.02977e-18
3661.99510 9.38053e-18
3664.00213 9.55091e-18
3665.99898 9.72133e-18
3667.99583 9.72037e-18
3670.00286 8.72441e-18
3671.99971 9.04587e-18
3673.99656 8.97040e-18
3676.00360 8.08006e-18
3678.00044 8.46525e-18
3679.99729 8.67302e-18
3682.00433 9.49627e-18
3684.00118 9.53262e-18
3685.99802 9.01134e-18
3688.00506 8.14058e-18
3690.00191 8.58187e-18
3691.99876 8.79241e-18
3693.99560 9.17988e-18
3696.00264 8.86203e-18
3697.99949 9.21656e-18
3699.99634 1.02496e-17
3702.00337 1.00214e-17
3704.00022 9.88719e-18
3705.99707 9.88215e-18
3708.00410 9.41375e-18
3710.00095 9.57532e-18
3711.99780 9.59163e-18
3714.00484 9.78305e-18
3716.00168 9.73199e-18
3717.99853 9.89478e-18
3719.99538 1.02019e-17
3722.00242 9.81132e-18
3723.99926 1.02621e-17
3725.99611 9.67141e-18
3728.00315 9.19054e-18
3730.00000 9.60933e-18
3731.99684 9.01008e-18
3734.00388 8.69514e-18
3736.00073 9.44687e-18
3737.99758 9.65681e-18
3740.00461 8.43941e-18
3742.00146 9.03496e-18
3743.99831 9.23699e-18
3745.99516 8.63470e-18
3748.00219 8.78552e-18
3749.99904 9.34742e-18
3751.99589 9.02717e-18
3754.00292 9.43649e-18
3755.99977 9.36811e-18
3757.99662 7.73430e-18
3760.00366 7.70270e-18
3762.00050 8.56621e-18
3763.99735 8.67943e-18
3766.00439 9.04806e-18
3768.00124 8.52208e-18
3769.99808 8.35061e-18
3772.00512 9.34132e-18
3774.00197 9.70580e-18
3775.99882 7.59991e-18
3777.99566 7.50132e-18
3780.00270 7.40274e-18
3781.99955 7.32840e-18
3783.99640 7.25408e-18
3786.00343 7.17978e-18
3788.00028 7.10548e-18
3789.99713 7.03121e-18
3792.00416 6.95694e-18
3794.00101 6.88269e-18
3795.99786 6.80845e-18
3798.00490 6.73423e-18
3800.00174 6.66002e-18
3801.99859 6.58582e-18
3803.99544 6.51164e-18
3806.00248 6.43746e-18
3807.99932 6.36332e-18
3809.99617 6.28917e-18
3812.00321 6.21504e-18
3814.00006 6.14092e-18
3815.99690 6.06681e-18
3818.00394 5.99272e-18
3820.00079 6.15770e-18
3821.99764 6.51167e-18
3824.00467 6.79425e-18
3826.00152 6.11193e-18
3827.99837 6.40265e-18
3829.99522 6.55321e-18
3832.00225 6.69160e-18
3833.99910 6.05869e-18
3835.99595 6.72383e-18
3838.00298 6.73496e-18
3839.99983 7.46553e-18
3841.99668 7.22646e-18
3844.00372 6.91306e-18
3846.00056 7.10619e-18
3847.99741 7.49008e-18
3850.00445 7.23417e-18
3852.00130 6.96893e-18
3853.99814 7.11545e-18
3855.99499 7.24966e-18
3858.00203 6.71041e-18
3859.99888 7.33721e-18
3861.99572 7.68942e-18
3864.00276 7.63581e-18
3865.99961 8.31668e-18
3867.99646 8.15331e-18
3870.00349 7.29390e-18
3872.00034 7.68057e-18
3873.99719 8.29664e-18
3876.00422 8.14796e-18
3878.00107 8.60479e-18
3879.99792 8.66953e-18
3881.99477 8.33343e-18
3884.00180 8.38531e-18
3885.99865 8.26072e-18
3887.99550 8.11158e-18
3890.00254 8.56297e-18
3891.99938 8.36455e-18
3893.99623 8.56701e-18
3896.00327 9.65416e-18
3898.00012 9.46000e-18
3899.99696 9.39343e-18
3902.00400 8.69878e-18
3904.00085 9.84275e-18
3905.99770 1.03650e-17
3908.00473 1.03979e-17
3910.00158 1.00995e-17
3911.99843 9.92411e-18
3913.99528 1.04915e-17
3916.00231 9.90489e-18
3917.99916 1.03095e-17
3919.99601 1.06265e-17
3922.00304 1.05270e-17
3923.99989 1.00213e-17
3925.99674 1.06236e-17
3928.00378 1.11474e-17
3930.00062 1.03382e-17
3931.99747 1.02059e-17
3934.00451 1.08220e-17
3936.00136 1.04777e-17
3937.99820 1.12340e-17
3939.99505 1.29496e-17
3942.00209 1.31148e-17
3943.99894 1.23831e-17
3945.99578 1.16228e-17
3948.00282 1.14861e-17
3949.99967 1.19347e-17
3951.99652 1.19071e-17
3954.00355 1.20798e-17
3956.00040 1.17409e-17
3957.99725 1.23054e-17
3960.00428 1.44706e-17
3962.00113 1.50068e-17
3963.99798 1.36217e-17
3965.99483 1.27548e-17
3968.00186 1.25879e-17
3969.99871 1.21023e-17
3971.99556 1.19911e-17
3974.00260 1.23330e-17
3975.99944 1.31087e-17
3977.99629 1.28005e-17
3980.00333 1.22787e-17
3982.00018 1.26987e-17
3983.99702 1.29980e-17
3986.00406 1.29968e-17
3988.00091 1.31675e-17
3989.99776 1.35431e-17
3992.00479 1.39306e-17
3994.00164 1.30527e-17
3995.99849 1.26414e-17
3997.99534 1.32273e-17
4000.00237 1.29051e-17
4001.99922 1.31198e-17
4003.99607 1.32972e-17
4006.00310 1.29564e-17
4007.99995 1.27025e-17
4009.99680 1.28817e-17
4012.00384 1.42570e-17
4014.00068 1.33538e-17
4015.99753 1.27395e-17
4018.00457 1.37726e-17
4020.00142 1.44657e-17
4021.99826 1.41932e-17
4023.99511 1.41484e-17
4026.00215 1.39924e-17
4027.99900 1.28641e-17
4029.99584 1.27473e-17
4032.00288 1.30173e-17
4033.99973 1.31261e-17
4035.99658 1.29643e-17
4038.00361 1.32063e-17
4040.00046 1.36290e-17
4041.99731 1.48411e-17
4044.00434 1.55022e-17
4046.00119 1.52651e-17
4047.99804 1.38623e-17
4049.99489 1.26720e-17
4052.00192 1.27233e-17
4053.99877 1.24885e-17
4055.99562 1.26855e-17
4058.00266 1.16414e-17
4059.99950 1.14514e-17
4061.99635 1.27620e-17
4064.00339 1.25157e-17
4066.00024 1.25173e-17
4067.99708 1.19804e-17
4070.00412 1.27113e-17
4072.00097 1.19625e-17
4073.99782 1.27405e-17
4076.00485 1.24070e-17
4078.00170 1.19412e-17
4079.99855 1.17513e-17
4081.99540 1.19300e-17
4084.00243 1.20556e-17
4085.99928 1.17518e-17
4087.99613 1.17360e-17
4090.00316 1.24470e-17
4092.00001 1.24513e-17
4093.99686 1.16139e-17
4096.00390 1.16193e-17
4098.00074 1.22209e-17
4099.99759 1.21853e-17
4102.00463 1.23814e-17
4104.00148 1.28578e-17
4105.99832 1.24120e-17
4107.99517 1.23068e-17
4110.00221 1.21198e-17
4111.99906 1.13502e-17
4113.99590 1.19084e-17
4116.00294 1.26657e-17
4117.99979 1.20301e-17
4119.99664 1.15376e-17
4122.00367 1.16672e-17
4124.00052 1.21291e-17
4125.99737 1.24598e-17
4128.00440 1.21722e-17
4130.00125 1.21244e-17
4131.99810 1.17828e-17
4133.99495 1.17859e-17
4136.00198 1.17416e-17
4137.99883 1.14452e-17
4139.99568 1.12605e-17
4142.00272 1.24450e-17
4143.99956 1.23249e-17
4145.99641 1.18831e-17
4148.00345 1.24691e-17
4150.00030 1.17171e-17
4151.99714 1.17487e-17
4154.00418 1.17735e-17
4156.00103 1.15145e-17
4157.99788 1.15911e-17
4160.00491 1.09999e-17
4162.00176 1.03558e-17
4163.99861 1.05960e-17
4165.99546 1.10534e-17
4168.00249 1.08820e-17
4169.99934 1.04190e-17
4171.99619 1.10211e-17
4174.00322 1.21179e-17
4176.00007 1.39218e-17
4177.99692 1.52088e-17
4180.00396 1.41124e-17
4182.00080 1.20722e-17
4183.99765 1.07819e-17
4186.00469 1.02014e-17
4188.00154 1.05275e-17
4189.99838 1.07768e-17
4191.99523 1.01522e-17
4194.00227 9.98284e-18
4195.99912 1.00522e-17
4197.99596 9.92337e-18
4200.00300 1.02528e-17
4201.99985 1.09849e-17
4203.99670 1.10827e-17
4206.00373 1.08477e-17
4208.00058 1.07449e-17
4209.99743 1.02593e-17
4212.00446 1.07163e-17
4214.00131 1.06300e-17
4215.99816 1.02271e-17
4218.00520 1.00743e-17
4220.00204 1.00888e-17
4221.99889 1.09057e-17
4223.99574 1.13041e-17
4226.00278 1.12231e-17
4227.99962 1.03119e-17
4229.99647 1.00148e-17
4232.00351 1.04709e-17
4234.00036 1.03301e-17
4235.99720 9.67713e-18
4238.00424 1.04459e-17
4240.00109 1.08127e-17
4241.99794 1.08483e-17
4244.00497 1.10235e-17
4246.00182 1.06225e-17
4247.99867 1.07905e-17
4249.99552 1.09695e-17
4252.00255 1.10536e-17
4253.99940 1.11093e-17
4255.99625 1.05460e-17
4258.00328 1.04654e-17
4260.00013 1.07699e-17
4261.99698 1.06646e-17
4264.00402 1.03794e-17
4266.00086 1.10358e-17
4267.99771 1.10871e-17
4270.00475 1.06493e-17
4272.00160 1.05209e-17
4273.99844 1.06567e-17
4275.99529 1.05061e-17
4278.00233 1.04395e-17
4279.99918 1.04933e-17
4281.99602 1.10401e-17
4284.00306 1.17575e-17
4285.99991 1.10039e-17
4287.99676 9.85560e-18
4290.00379 1.06034e-17
4292.00064 1.07205e-17
4293.99749 1.08033e-17
4296.00452 1.03154e-17
4298.00137 1.06989e-17
4299.99822 1.13569e-17
4301.99507 1.04488e-17
4304.00210 9.99287e-18
4305.99895 1.05008e-17
4307.99580 1.02850e-17
4310.00284 1.05724e-17
4311.99968 1.05119e-17
4313.99653 1.12978e-17
4316.00357 1.09350e-17
4318.00042 1.04333e-17
4319.99726 1.09068e-17
4322.00430 1.18334e-17
4324.00115 1.08624e-17
4325.99800 1.08233e-17
4327.99484 1.09999e-17
4330.00188 1.02066e-17
4331.99873 1.03397e-17
4333.99558 1.05248e-17
4336.00261 1.09849e-17
4337.99946 1.16414e-17
4339.99631 1.14874e-17
4342.00334 1.04585e-17
4344.00019 1.04412e-17
4345.99704 1.08555e-17
4348.00408 1.09571e-17
4350.00092 1.03477e-17
4351.99777 1.05181e-17
4354.00481 1.14597e-17
4356.00166 1.15653e-17
4357.99850 1.08259e-17
4359.99535 1.04891e-17
4362.00239 1.11594e-17
4363.99924 1.15420e-17
4365.99608 1.12196e-17
4368.00312 1.08990e-17
4369.99997 1.12479e-17
4371.99682 1.06845e-17
4374.00385 9.91992e-18
4376.00070 1.06192e-17
4377.99755 1.04738e-17
4380.00458 9.95970e-18
4382.00143 9.95293e-18
4383.99828 1.02134e-17
4385.99513 1.01115e-17
4388.00216 9.69252e-18
4389.99901 1.04467e-17
4391.99586 9.96099e-18
4394.00290 9.27847e-18
4395.99974 1.01806e-17
4397.99659 1.01965e-17
4400.00363 9.74570e-18
4402.00048 9.14666e-18
4403.99732 9.62338e-18
4406.00436 9.44609e-18
4408.00121 9.21136e-18
4409.99806 9.99498e-18
4411.99490 9.51716e-18
4414.00194 9.11179e-18
4415.99879 9.14747e-18
4417.99564 9.18313e-18
4420.00267 9.21880e-18
4421.99952 9.25445e-18
4423.99637 9.29009e-18
4426.00340 9.32574e-18
4428.00025 9.36137e-18
4429.99710 9.39700e-18
4432.00414 9.43262e-18
4434.00098 9.46824e-18
4435.99783 9.50386e-18
4437.99468 9.53946e-18
4440.00172 9.57507e-18
4441.99856 9.61066e-18
4443.99541 9.64625e-18
4446.00245 9.68183e-18
4447.99930 9.71740e-18
4449.99614 9.75298e-18
4452.00318 9.78854e-18
4454.00003 9.82411e-18
4455.99688 9.85966e-18
4458.00391 9.89520e-18
4460.00076 9.93075e-18
4461.99761 9.96628e-18
4464.00464 1.00018e-17
4466.00149 1.00373e-17
4467.99834 1.00729e-17
4469.99519 1.01084e-17
4472.00222 1.01439e-17
4473.99907 1.01794e-17
4475.99592 1.02149e-17
4478.00296 9.99842e-18
4479.99980 1.05156e-17
4481.99665 1.01580e-17
4484.00369 1.05021e-17
4486.00054 1.03482e-17
4487.99738 1.06953e-17
4490.00442 1.01029e-17
4492.00127 1.09947e-17
4493.99812 1.13051e-17
4495.99496 1.13451e-17
4498.00200 1.07567e-17
4499.99885 1.12198e-17
4501.99570 1.15303e-17
4504.00273 1.11556e-17
4505.99958 1.09537e-17
4507.99643 1.11143e-17
4510.00346 1.14361e-17
4512.00031 1.16011e-17
4513.99716 1.15292e-17
4516.00420 1.15465e-17
4518.00104 1.14274e-17
4519.99789 1.16541e-17
4522.00493 1.15821e-17
4524.00178 1.11185e-17
4525.99862 1.14802e-17
4527.99547 1.21060e-17
4530.00251 1.19545e-17
4531.99936 1.17614e-17
4533.99620 1.23331e-17
4536.00324 1.21179e-17
4538.00009 1.21104e-17
4539.99694 1.21082e-17
4542.00397 1.32629e-17
4544.00082 1.30807e-17
4545.99767 1.25569e-17
4548.00470 1.27663e-17
4550.00155 1.26787e-17
4551.99840 1.32574e-17
4553.99525 1.36895e-17
4556.00228 1.41313e-17
4557.99913 1.42995e-17
4559.99598 1.32081e-17
4562.00302 1.34589e-17
4563.99986 1.36027e-17
4565.99671 1.38787e-17
4568.00375 1.41710e-17
4570.00060 1.39002e-17
4571.99744 1.39391e-17
4574.00448 1.45081e-17
4576.00133 1.44977e-17
4577.99818 1.50173e-17
4579.99502 1.55017e-17
4582.00206 1.53381e-17
4583.99891 1.49581e-17
4585.99576 1.50719e-17
4588.00279 1.56052e-17
4589.99964 1.61218e-17
4591.99649 1.56646e-17
4594.00352 1.54590e-17
4596.00037 1.54534e-17
4597.99722 1.58452e-17
4600.00426 1.68888e-17
4602.00110 1.66237e-17
4603.99795 1.60508e-17
4605.99480 1.61222e-17
4608.00184 1.66443e-17
4609.99868 1.71596e-17
4611.99553 1.64947e-17
4614.00257 1.58487e-17
4615.99942 1.64465e-17
4617.99626 1.64074e-17
4620.00330 1.67213e-17
4622.00015 1.75164e-17
4623.99700 1.74985e-17
4626.00403 1.70909e-17
4628.00088 1.74565e-17
4629.99773 1.71796e-17
4632.00476 1.65047e-17
4634.00161 1.66265e-17
4635.99846 1.64502e-17
4637.99531 1.68715e-17
4640.00234 1.73367e-17
4641.99919 1.69273e-17
4643.99604 1.75688e-17
4646.00308 1.75058e-17
4647.99992 1.83553e-17
4649.99677 1.80296e-17
4652.00381 1.66992e-17
4654.00066 1.67061e-17
4655.99750 1.76365e-17
4658.00454 1.72345e-17
4660.00139 1.71296e-17
4661.99824 1.75874e-17
4663.99508 1.72568e-17
4666.00212 1.71493e-17
4667.99897 1.69459e-17
4669.99582 1.73123e-17
4672.00285 1.75032e-17
4673.99970 1.75415e-17
4675.99655 1.72568e-17
4678.00358 1.71855e-17
4680.00043 1.66350e-17
4681.99728 1.61653e-17
4684.00432 1.60071e-17
4686.00116 1.64709e-17
4687.99801 1.64598e-17
4690.00505 1.66503e-17
4692.00190 1.69754e-17
4693.99874 1.62185e-17
4695.99559 1.59419e-17
4698.00263 1.64156e-17
4699.99948 1.60661e-17
4701.99632 1.54126e-17
4704.00336 1.49870e-17
4706.00021 1.56815e-17
4707.99706 1.51461e-17
4710.00409 1.51978e-17
4712.00094 1.50742e-17
4713.99779 1.40387e-17
4716.00482 1.39925e-17
4718.00167 1.42722e-17
4719.99852 1.52471e-17
4721.99537 1.45569e-17
4724.00240 1.49036e-17
4725.99925 1.39030e-17
4727.99610 1.37097e-17
4730.00314 1.46445e-17
4731.99998 1.41264e-17
4733.99683 1.40364e-17
4736.00387 1.43992e-17
4738.00072 1.43193e-17
4739.99756 1.41226e-17
4742.00460 1.32205e-17
4744.00145 1.26752e-17
4745.99830 1.34338e-17
4747.99514 1.35042e-17
4750.00218 1.30496e-17
4751.99903 1.26304e-17
4753.99588 1.27657e-17
4756.00291 1.29857e-17
4757.99976 1.26194e-17
4759.99661 1.21646e-17
4762.00364 1.28663e-17
4764.00049 1.29358e-17
4765.99734 1.23332e-17
4768.00438 1.25330e-17
4770.00122 1.22911e-17
4771.99807 1.17387e-17
4773.99492 1.15538e-17
4776.00196 1.13242e-17
4777.99880 1.16003e-17
4779.99565 1.13316e-17
4782.00269 1.13219e-17
4783.99954 1.14254e-17
4785.99638 1.12169e-17
4788.00342 1.05300e-17
4790.00027 1.10814e-17
4791.99712 1.05036e-17
4794.00415 1.02452e-17
4796.00100 1.04158e-17
4797.99785 1.05730e-17
4800.00488 1.05262e-17
4802.00173 1.00581e-17
4803.99858 1.01258e-17
4805.99543 1.06220e-17
4808.00246 1.06033e-17
4809.99931 1.04797e-17
4811.99616 1.03429e-17
4814.00320 1.03416e-17
4816.00004 1.05298e-17
4817.99689 1.05526e-17
4820.00393 1.08634e-17
4822.00078 1.09661e-17
4823.99762 1.10727e-17
4826.00466 1.12052e-17
4828.00151 1.07169e-17
4829.99836 1.03094e-17
4831.99520 1.02093e-17
4834.00224 1.06619e-17
4835.99909 1.13159e-17
4837.99594 1.17854e-17
4840.00297 1.15194e-17
4841.99982 1.07232e-17
4843.99667 1.04247e-17
4846.00370 1.05432e-17
4848.00055 1.07143e-17
4849.99740 1.06144e-17
4852.00444 1.06930e-17
4854.00128 1.07730e-17
4855.99813 1.10565e-17
4857.99498 1.09529e-17
4860.00202 1.10892e-17
4861.99886 1.14415e-17
4863.99571 1.09097e-17
4866.00275 1.08816e-17
4867.99960 1.07142e-17
4869.99644 1.09305e-17
4872.00348 1.06499e-17
4874.00033 1.02324e-17
4875.99718 9.86959e-18
4878.00421 1.03247e-17
4880.00106 1.07132e-17
4881.99791 1.05621e-17
4884.00494 1.06698e-17
4886.00179 1.06034e-17
4887.99864 1.10314e-17
4889.99549 1.07133e-17
4892.00252 1.02271e-17
4893.99937 1.03746e-17
4895.99622 1.04922e-17
4898.00326 1.01102e-17
4900.00010 1.03613e-17
4901.99695 1.07873e-17
4904.00399 1.03259e-17
4906.00084 1.05767e-17
4907.99768 1.06138e-17
4910.00472 1.08735e-17
4912.00157 1.10719e-17
4913.99842 1.08098e-17
4915.99526 1.06437e-17
4918.00230 1.09094e-17
4919.99915 1.11869e-17
4921.99600 1.08980e-17
4924.00303 1.09584e-17
4925.99988 1.12039e-17
4927.99673 1.12940e-17
4930.00376 1.15993e-17
4932.00061 1.21206e-17
4933.99746 1.17219e-17
4936.00450 1.18151e-17
4938.00134 1.19082e-17
4939.99819 1.20014e-17
4941.99504 1.20946e-17
4944.00208 1.21877e-17
4945.99892 1.22808e-17
4947.99577 1.23739e-17
4950.00281 1.24671e-17
4951.99966 1.25601e-17
4953.99650 1.26532e-17
4956.00354 1.27463e-17
4958.00039 1.28393e-17
4959.99724 1.29323e-17
4962.00427 1.30253e-17
4964.00112 1.31183e-17
4965.99797 1.32113e-17
4968.00500 1.33043e-17
4970.00185 1.33972e-17
4971.99870 1.34902e-17
4973.99555 1.36754e-17
4976.00258 1.36828e-17
4977.99943 1.39112e-17
4979.99628 1.36638e-17
4982.00332 1.28181e-17
4984.00016 1.34144e-17
4985.99701 1.43900e-17
4988.00405 1.40141e-17
4990.00090 1.33627e-17
4991.99774 1.37368e-17
4994.00478 1.41676e-17
4996.00163 1.30764e-17
4997.99848 1.27102e-17
4999.99532 1.26350e-17
5002.00236 1.22393e-17
5003.99921 1.24986e-17
5005.99606 1.21859e-17
5008.00309 1.17306e-17
5009.99994 1.17402e-17
5011.99679 1.22244e-17
5014.00382 1.19313e-17
5016.00067 1.19565e-17
5017.99752 1.13520e-17
5020.00456 1.09770e-17
5022.00140 1.13814e-17
5023.99825 1.11281e-17
5025.99510 1.06739e-17
5028.00214 1.07913e-17
5029.99898 1.01007e-17
5031.99583 1.02663e-17
5034.00287 1.02565e-17
5035.99972 1.02467e-17
5037.99656 1.02369e-17
5040.00360 1.02271e-17
5042.00045 1.02173e-17
5043.99730 1.02076e-17
5046.00433 1.01978e-17
5048.00118 1.01880e-17
5049.99803 1.01782e-17
5051.99488 1.01685e-17
5054.00191 1.01587e-17
5055.99876 1.01489e-17
5057.99561 1.01392e-17
5060.00264 1.01294e-17
5061.99949 1.01196e-17
5063.99634 1.01099e-17
5066.00338 1.01001e-17
5068.00022 1.00904e-17
5069.99707 1.00806e-17
5072.00411 1.00709e-17
5074.00096 9.34281e-18
5075.99780 1.04662e-17
5077.99465 1.07304e-17
5080.00169 1.00405e-17
5081.99854 9.84888e-18
5083.99538 9.88269e-18
5086.00242 9.91650e-18
5087.99927 9.95030e-18
5089.99612 9.98409e-18
5092.00315 1.00179e-17
5094.00000 1.00517e-17
5095.99685 1.00854e-17
5098.00388 1.01192e-17
5100.00073 1.01530e-17
5101.99758 1.01868e-17
5104.00462 1.02205e-17
5106.00146 1.02543e-17
5107.99831 1.02880e-17
5109.99516 1.03218e-17
5112.00220 1.03555e-17
5113.99904 1.03893e-17
5115.99589 1.04230e-17
5118.00293 1.04567e-17
5119.99978 1.04905e-17
5121.99662 1.00592e-17
5124.00366 1.07778e-17
5126.00051 1.09070e-17
5127.99736 1.09632e-17
5130.00439 1.07221e-17
5132.00124 1.06224e-17
5133.99809 1.05353e-17
5136.00512 1.05704e-17
5138.00197 1.12078e-17
5139.99882 1.13227e-17
5141.99567 1.07812e-17
5144.00270 1.01320e-17
5145.99955 1.06815e-17
5147.99640 1.15152e-17
5150.00344 1.19600e-17
5152.00028 1.17806e-17
5153.99713 1.16341e-17
5156.00417 1.11003e-17
5158.00102 1.08217e-17
5159.99786 1.15767e-17
5162.00490 1.15935e-17
5164.00175 1.16349e-17
5165.99860 1.18927e-17
5167.99544 1.14827e-17
5170.00248 1.14217e-17
5171.99933 1.19053e-17
5173.99618 1.15178e-17
5176.00321 1.10565e-17
5178.00006 1.14884e-17
5179.99691 1.17293e-17
5182.00394 1.09796e-17
5184.00079 1.09999e-17
5185.99764 1.16004e-17
5188.00468 1.17770e-17
5190.00152 1.23299e-17
5191.99837 1.19254e-17
5193.99522 1.16969e-17
5196.00226 1.20795e-17
5197.99910 1.22437e-17
5199.99595 1.21300e-17
5202.00299 1.19658e-17
5203.99984 1.28429e-17
5205.99668 1.23642e-17
5208.00372 1.19890e-17
5210.00057 1.21241e-17
5211.99742 1.28572e-17
5214.00445 1.30527e-17
5216.00130 1.20834e-17
5217.99815 1.22337e-17
5219.99500 1.28846e-17
5222.00203 1.29627e-17
5223.99888 1.23123e-17
5225.99573 1.25762e-17
5228.00276 1.27440e-17
5229.99961 1.26793e-17
5231.99646 1.24999e-17
5234.00350 1.24036e-17
5236.00034 1.30343e-17
5237.99719 1.31945e-17
5240.00423 1.29647e-17
5242.00108 1.26088e-17
5243.99792 1.29960e-17
5245.99477 1.27479e-17
5248.00181 1.27331e-17
5249.99866 1.33035e-17
5251.99550 1.33123e-17
5254.00254 1.41235e-17
5255.99939 1.38232e-17
5257.99624 1.35767e-17
5260.00327 1.38868e-17
5262.00012 1.37585e-17
5263.99697 1.37393e-17
5266.00400 1.35486e-17
5268.00085 1.44178e-17
5269.99770 1.50071e-17
5272.00474 1.49283e-17
5274.00158 1.49133e-17
5275.99843 1.46233e-17
5277.99528 1.42206e-17
5280.00232 1.48551e-17
5281.99916 1.47733e-17
5283.99601 1.48455e-17
5286.00305 1.48379e-17
5287.99990 1.54311e-17
5289.99674 1.48889e-17
5292.00378 1.47786e-17
5294.00063 1.54380e-17
5295.99748 1.62660e-17
5298.00451 1.55515e-17
5300.00136 1.49189e-17
5301.99821 1.58232e-17
5303.99506 1.56516e-17
5306.00209 1.54641e-17
5307.99894 1.53463e-17
5309.99579 1.57550e-17
5312.00282 1.59512e-17
5313.99967 1.56434e-17
5315.99652 1.57043e-17
5318.00356 1.52919e-17
5320.00040 1.52708e-17
5321.99725 1.61650e-17
5324.00429 1.67369e-17
5326.00114 1.62210e-17
5327.99798 1.64102e-17
5330.00502 1.66513e-17
5332.00187 1.64286e-17
5333.99872 1.60626e-17
5335.99556 1.64684e-17
5338.00260 1.70055e-17
5339.99945 1.70370e-17
5341.99630 1.73395e-17
5344.00333 1.68402e-17
5346.00018 1.69385e-17
5347.99703 1.71095e-17
5350.00406 1.71357e-17
5352.00091 1.66156e-17
5353.99776 1.70511e-17
5356.00480 1.68721e-17
5358.00164 1.70822e-17
5359.99849 1.71334e-17
5361.99534 1.69329e-17
5364.00238 1.77502e-17
5365.99922 1.67977e-17
5367.99607 1.74388e-17
5370.00311 1.68987e-17
5371.99996 1.65838e-17
5373.99680 1.69755e-17
5376.00384 1.73241e-17
5378.00069 1.67943e-17
5379.99754 1.73767e-17
5382.00457 1.73245e-17
5384.00142 1.63983e-17
