# wavelength flux
3720.00230 8.59394e-18
3721.49568 8.04357e-18
3722.99921 1.03134e-17
3724.50274 1.25643e-17
3725.99611 1.19075e-17
3727.49964 8.01283e-18
3729.00318 1.05368e-17
3730.49655 1.21857e-17
3732.00008 1.03750e-17
3733.50361 1.02299e-17
3734.99699 1.05897e-17
3736.50052 1.01365e-17
3738.00405 1.06007e-17
3739.49742 1.19348e-17
3741.00095 1.25667e-17
3742.50449 1.16281e-17
3743.99786 8.24004e-18
3745.50139 1.01030e-17
3746.99476 1.26582e-17
3748.49830 9.22332e-18
3750.00183 7.39162e-18
3751.49520 9.59199e-18
3752.99873 1.03225e-17
3754.50227 7.47301e-18
3755.99564 7.35902e-18
3757.49917 8.16753e-18
3759.00270 9.53266e-18
3760.49608 1.19256e-17
3761.99961 1.30718e-17
3763.50314 1.23042e-17
3764.99651 1.14160e-17
3766.50005 9.79199e-18
3768.00358 9.63009e-18
3769.49695 9.46821e-18
3771.00048 9.46349e-18
3772.50401 9.45877e-18
3773.99739 9.45406e-18
3775.50092 9.44934e-18
3777.00445 9.44463e-18
3778.49782 9.43992e-18
3780.00136 9.43520e-18
3781.50489 9.43049e-18
3782.99826 9.42579e-18
3784.50179 9.42108e-18
3785.99517 9.41637e-18
3787.49870 9.41166e-18
3789.00223 9.40695e-18
3790.49560 9.40225e-18
3791.99914 9.39754e-18
3793.50267 9.39284e-18
3794.99604 9.38814e-18
3796.49957 9.38344e-18
3798.00310 9.37873e-18
3799.49648 9.37403e-18
3801.00001 9.36933e-18
3802.50354 9.36464e-18
3803.99691 9.35994e-18
3805.50045 9.35524e-18
3807.00398 9.35055e-18
3808.49735 9.05498e-18
3810.00088 8.75943e-18
3811.50441 8.46390e-18
3812.99779 8.16838e-18
3814.50132 7.87289e-18
3816.00485 7.57740e-18
3817.49823 7.57719e-18
3819.00176 7.30039e-18
3820.49513 8.64373e-18
3821.99866 7.34851e-18
3823.50219 6.94435e-18
3824.99557 6.91952e-18
3826.49910 7.76608e-18
3828.00263 9.23667e-18
3829.49600 6.44502e-18
3830.99954 6.34737e-18
3832.50307 8.64034e-18
3833.99644 7.00456e-18
3835.49997 9.79158e-18
3837.00351 1.05467e-17
3838.49688 9.17225e-18
3840.00041 9.40886e-18
3841.50394 7.97194e-18
3842.99732 1.21457e-17
3844.50085 1.08046e-17
3846.00438 9.35484e-18
3847.49775 1.01718e-17
3849.00128 1.16123e-17
3850.50482 1.21523e-17
3851.99819 1.07509e-17
3853.50172 1.12367e-17
3854.99509 9.23512e-18
3856.49863 9.10578e-18
3858.00216 1.07323e-17
3859.49553 1.10231e-17
3860.99906 1.10435e-17
3862.50260 1.13718e-17
3863.99597 9.00893e-18
3865.49950 8.22954e-18
3867.00303 9.27066e-18
3868.49640 8.44289e-18
3869.99994 9.82768e-18
3871.50347 1.09354e-17
3872.99684 8.53884e-18
3874.50037 9.47973e-18
3876.00391 8.53816e-18
3877.49728 5.90385e-18
3879.00081 7.82792e-18
3880.50434 1.17140e-17
3881.99772 1.10979e-17
3883.50125 9.20443e-18
3885.00478 9.72799e-18
3886.49815 9.69616e-18
3888.00169 1.11102e-17
3889.49506 1.12204e-17
3890.99859 1.07836e-17
3892.50212 1.13736e-17
3893.99550 1.11903e-17
3895.49903 1.05798e-17
3897.00256 1.18528e-17
3898.49593 1.25377e-17
3899.99946 1.09676e-17
3901.50300 9.48919e-18
3902.99637 9.34052e-18
3904.49990 1.10037e-17
3906.00343 1.08611e-17
3907.49681 1.11628e-17
3909.00034 1.24049e-17
3910.50387 1.16278e-17
3911.99724 1.18610e-17
3913.50077 1.18598e-17
3915.00431 1.03337e-17
3916.49768 1.02461e-17
3918.00121 1.18296e-17
3919.50474 1.20038e-17
3920.99812 1.16036e-17
3922.50165 1.11505e-17
3923.99502 1.23912e-17
3925.49855 1.32396e-17
3927.00209 1.25599e-17
3928.49546 1.19650e-17
3929.99899 9.59837e-18
3931.50252 9.98039e-18
3932.99590 1.17502e-17
3934.49943 1.06447e-17
3936.00296 1.01227e-17
3937.49633 1.31134e-17
3938.99987 1.28598e-17
3940.50340 1.07583e-17
3941.99677 1.15273e-17
3943.50030 1.16301e-17
3945.00383 1.34751e-17
3946.49721 1.39438e-17
3948.00074 1.25333e-17
3949.50427 1.13890e-17
3950.99764 1.07409e-17
3952.50118 1.19783e-17
3954.00471 1.21628e-17
3955.49808 1.13777e-17
3957.00161 1.13234e-17
3958.49499 1.13084e-17
3959.99852 1.17292e-17
3961.50205 1.25734e-17
3962.99542 1.24017e-17
3964.49896 1.20414e-17
3966.00249 8.79237e-18
3967.49586 9.91911e-18
3968.99939 1.21722e-17
3970.50292 1.13429e-17
3971.99630 1.00617e-17
3973.49983 1.22876e-17
3975.00336 1.43086e-17
3976.49673 1.44304e-17
3978.00027 1.31623e-17
3979.50380 1.35222e-17
3980.99717 1.30962e-17
3982.50070 1.13979e-17
3984.00424 1.25235e-17
3985.49761 1.25985e-17
3987.00114 1.27040e-17
3988.50467 1.26567e-17
3989.99805 1.17855e-17
3991.50158 1.34790e-17
3992.99495 1.43592e-17
3994.49848 1.23250e-17
3996.00201 1.02017e-17
3997.49539 9.69824e-18
3998.99892 1.11727e-17
4000.50245 1.26868e-17
4001.99582 1.31300e-17
4003.49936 1.14307e-17
4005.00289 1.07656e-17
4006.49626 1.16733e-17
4007.99979 1.18511e-17
4009.50333 1.14860e-17
4010.99670 1.16618e-17
4012.50023 1.22761e-17
4014.00376 1.21809e-17
4015.49714 1.09878e-17
4017.00067 1.05979e-17
4018.50420 1.25556e-17
4019.99757 1.34643e-17
4021.50110 1.30907e-17
4023.00464 1.24889e-17
4024.49801 1.21431e-17
4026.00154 1.24371e-17
4027.49491 1.41933e-17
4028.99845 1.29702e-17
4030.50198 1.06368e-17
4031.99535 1.15058e-17
4033.49888 1.19073e-17
4035.00241 1.18945e-17
4036.49579 1.24519e-17
4037.99932 1.23350e-17
4039.50285 1.17725e-17
4040.99623 1.10436e-17
4042.49976 1.25344e-17
4044.00329 1.40649e-17
4045.49666 1.33382e-17
4047.00019 1.09430e-17
4048.50373 1.14727e-17
4049.99710 1.16598e-17
4051.50063 1.21075e-17
4053.00416 1.23229e-17
4054.49754 1.20136e-17
4056.00107 1.39334e-17
4057.50460 1.30291e-17
4058.99797 1.27432e-17
4060.50150 1.31861e-17
4062.00504 1.26442e-17
4063.49841 1.26439e-17
4065.00194 1.19814e-17
4066.49532 1.06523e-17
4067.99885 1.22413e-17
4069.50238 1.22899e-17
4070.99575 1.15408e-17
4072.49928 1.18413e-17
4074.00282 1.48257e-17
4075.49619 1.35179e-17
4076.99972 1.14657e-17
4078.50325 1.29904e-17
4079.99663 1.46422e-17
4081.50016 1.35318e-17
4083.00369 1.19961e-17
4084.49706 1.15218e-17
4086.00060 1.15094e-17
4087.50413 1.37201e-17
4088.99750 1.37736e-17
4090.50103 1.16724e-17
4092.00456 1.16568e-17
4093.49794 1.32075e-17
4095.00147 1.39151e-17
4096.50500 1.38882e-17
4097.99837 1.49170e-17
4099.50191 1.45173e-17
4100.99528 1.30078e-17
4102.49881 1.32362e-17
4104.00234 1.29445e-17
4105.49572 1.33460e-17
4106.99925 1.48420e-17
4108.50278 1.42375e-17
4109.99615 1.31855e-17
4111.49968 1.35756e-17
4113.00322 1.49278e-17
4114.49659 1.46262e-17
4116.00012 1.36189e-17
4117.50365 1.31455e-17
4118.99703 1.19702e-17
4120.50056 1.10610e-17
4122.00409 1.17535e-17
4123.49746 1.24372e-17
4125.00100 1.26609e-17
4126.50453 1.08355e-17
4127.99790 1.15966e-17
4129.50143 1.43039e-17
4130.99481 1.33148e-17
4132.49834 1.32638e-17
4134.00187 1.26480e-17
4135.49524 1.23529e-17
4136.99878 1.26255e-17
4138.50231 1.25001e-17
4139.99568 1.19682e-17
4141.49921 1.22389e-17
4143.00274 1.29413e-17
4144.49612 1.33704e-17
4145.99965 1.22126e-17
4147.50318 1.25928e-17
4148.99655 1.23925e-17
4150.50009 1.21249e-17
4152.00362 1.30549e-17
4153.49699 1.11229e-17
4155.00052 1.14539e-17
4156.50406 1.28222e-17
4157.99743 1.17203e-17
4159.50096 1.12290e-17
4161.00449 1.20737e-17
4162.49787 1.18391e-17
4164.00140 1.13351e-17
4165.50493 1.04863e-17
4166.99830 1.10635e-17
4168.50183 9.43186e-18
4169.99521 9.48889e-18
4171.49874 1.22077e-17
4173.00227 1.22548e-17
4174.49564 1.09800e-17
4175.99918 1.11334e-17
4177.50271 1.10114e-17
4178.99608 1.11811e-17
4180.49961 1.33299e-17
4182.00315 1.39927e-17
4183.49652 1.22966e-17
4185.00005 1.14582e-17
4186.50358 1.26972e-17
4187.99695 1.29902e-17
4189.50049 1.28958e-17
4191.00402 1.14119e-17
4192.49739 1.04949e-17
4194.00092 1.33047e-17
4195.50446 1.30199e-17
4196.99783 1.20860e-17
4198.50136 1.19161e-17
4200.00489 1.30218e-17
4201.49827 1.20372e-17
4203.00180 1.10843e-17
4204.49517 1.29157e-17
4205.99870 1.25098e-17
4207.50223 1.15843e-17
4208.99561 1.28232e-17
4210.49914 1.32099e-17
4212.00267 1.20335e-17
4213.49604 1.18855e-17
4214.99958 1.15080e-17
4216.50311 1.12616e-17
4217.99648 1.17711e-17
4219.50001 1.21374e-17
4221.00355 1.25710e-17
4222.49692 1.27115e-17
4224.00045 1.23921e-17
4225.50398 1.16492e-17
4226.99736 1.12179e-17
4228.50089 1.16247e-17
4230.00442 1.18202e-17
4231.49779 1.20534e-17
4233.00133 1.28725e-17
4234.50486 1.27906e-17
4235.99823 1.15280e-17
4237.50176 1.18897e-17
4238.99514 1.18038e-17
4240.49867 1.23219e-17
4242.00220 1.23564e-17
4243.49557 1.16978e-17
4244.99910 1.17419e-17
4246.50264 1.28999e-17
4247.99601 1.31382e-17
4249.49954 1.21020e-17
4251.00307 1.16261e-17
4252.49645 1.15276e-17
4253.99998 1.17768e-17
4255.50351 1.02467e-17
4256.99688 1.06568e-17
4258.50042 1.12647e-17
4260.00395 1.06939e-17
4261.49732 1.03619e-17
4263.00085 1.14668e-17
4264.50438 1.18913e-17
4265.99776 1.09656e-17
4267.50129 1.23203e-17
4269.00482 1.14365e-17
4270.49819 1.20735e-17
4272.00173 1.14218e-17
4273.49510 1.19529e-17
4274.99863 1.06839e-17
4276.50216 1.10224e-17
4277.99554 1.16925e-17
4279.49907 1.15965e-17
4281.00260 9.89644e-18
4282.49597 1.02491e-17
4283.99950 1.00499e-17
4285.50304 1.05932e-17
4286.99641 1.15054e-17
4288.49994 1.10946e-17
4290.00347 1.14239e-17
4291.49685 1.11221e-17
4293.00038 1.03977e-17
4294.50391 1.11372e-17
4295.99728 1.06151e-17
4297.50082 9.69545e-18
4299.00435 9.96805e-18
4300.49772 1.07984e-17
4302.00125 1.15687e-17
4303.50479 1.15435e-17
4304.99816 1.12931e-17
4306.50169 1.15597e-17
4307.99506 1.05256e-17
4309.49860 8.72019e-18
4311.00213 8.73129e-18
4312.49550 9.51509e-18
4313.99903 1.02749e-17
4315.50256 9.96529e-18
4316.99594 9.87486e-18
4318.49947 1.04054e-17
4320.00300 1.08776e-17
4321.49637 1.03257e-17
4322.99991 1.06448e-17
4324.50344 1.00678e-17
4325.99681 1.00901e-17
4327.50034 1.05314e-17
4329.00388 1.02631e-17
4330.49725 9.17754e-18
4332.00078 9.49035e-18
4333.50431 9.40878e-18
4334.99768 8.83107e-18
4336.50122 9.81141e-18
4338.00475 9.70388e-18
4339.49812 9.76535e-18
4341.00165 9.81242e-18
4342.49503 9.94082e-18
4343.99856 1.01430e-17
4345.50209 1.01841e-17
4346.99546 9.78242e-18
4348.49900 9.44794e-18
4350.00253 9.25285e-18
4351.49590 9.58398e-18
4352.99943 1.05831e-17
4354.50297 1.04594e-17
4355.99634 9.62936e-18
4357.49987 9.67446e-18
4359.00340 9.44793e-18
4360.49678 9.67539e-18
4362.00031 1.01343e-17
4363.50384 1.01788e-17
4364.99721 9.16173e-18
4366.50074 9.23963e-18
4368.00428 9.85197e-18
4369.49765 9.56395e-18
4371.00118 9.55615e-18
4372.50471 1.01192e-17
4373.99809 1.02665e-17
4375.50162 1.03935e-17
4376.99499 1.02807e-17
4378.49852 1.01239e-17
4380.00205 9.93608e-18
4381.49543 1.02107e-17
4382.99896 1.02603e-17
4384.50249 9.99673e-18
4385.99587 1.06193e-17
4387.49940 1.05146e-17
4389.00293 9.25269e-18
4390.49630 9.60887e-18
4391.99983 1.09337e-17
4393.50337 1.04373e-17
4394.99674 1.04113e-17
4396.50027 1.04397e-17
4398.00380 1.03555e-17
4399.49718 1.14056e-17
4401.00071 1.16966e-17
4402.50424 1.14969e-17
4403.99761 1.09902e-17
4405.50115 1.07839e-17
4407.00468 1.08345e-17
4408.49805 9.99005e-18
4410.00158 1.09857e-17
4411.50511 1.11730e-17
4412.99849 1.03988e-17
4414.50202 1.04572e-17
4415.99539 1.05155e-17
4417.49892 1.05739e-17
4419.00246 1.06323e-17
4420.49583 1.06907e-17
4421.99936 1.07491e-17
4423.50289 1.08075e-17
4424.99627 1.08659e-17
4426.49980 1.09242e-17
4428.00333 1.09826e-17
4429.49670 1.10410e-17
4431.00023 1.10993e-17
4432.50377 1.11577e-17
4433.99714 1.12160e-17
4435.50067 1.12744e-17
4437.00420 1.13327e-17
4438.49758 1.13911e-17
4440.00111 1.14494e-17
4441.50464 1.15078e-17
4442.99801 1.15661e-17
4444.50155 1.16244e-17
4446.00508 1.16828e-17
4447.49845 1.17411e-17
4449.00198 1.17994e-17
4450.49536 1.18577e-17
4451.99889 1.19160e-17
4453.50242 1.14278e-17
4454.99579 1.19150e-17
4456.49932 1.11406e-17
4458.00286 1.07576e-17
4459.49623 1.13371e-17
4460.99976 1.13932e-17
4462.50329 1.21211e-17
4463.99667 1.16029e-17
4465.50020 1.18850e-17
4467.00373 1.18257e-17
4468.49710 1.18071e-17
4470.00064 1.28106e-17
4471.50417 1.22122e-17
4472.99754 1.34092e-17
4474.50107 1.26412e-17
4476.00461 1.15325e-17
4477.49798 1.20629e-17
4479.00151 1.25597e-17
4480.50504 1.30562e-17
4481.99842 1.34958e-17
4483.50195 1.33519e-17
4484.99532 1.27403e-17
4486.49885 1.22673e-17
4488.00238 1.22969e-17
4489.49576 1.30258e-17
4490.99929 1.36707e-17
4492.50282 1.40688e-17
4493.99619 1.37783e-17
4495.49973 1.26479e-17
4497.00326 1.27797e-17
4498.49663 1.33114e-17
4500.00016 1.27774e-17
4501.50370 1.25496e-17
4502.99707 1.21169e-17
4504.50060 1.30801e-17
4506.00413 1.38284e-17
4507.49751 1.43713e-17
4509.00104 1.39539e-17
4510.50457 1.38148e-17
4511.99794 1.37974e-17
4513.50147 1.36125e-17
4514.99485 1.37583e-17
4516.49838 1.29310e-17
4518.00191 1.24797e-17
4519.49528 1.31404e-17
4520.99882 1.42550e-17
4522.50235 1.39745e-17
4523.99572 1.39398e-17
4525.49925 1.42364e-17
4527.00278 1.41361e-17
4528.49616 1.46313e-17
4529.99969 1.43476e-17
4531.50322 1.26944e-17
4532.99660 1.34653e-17
4534.50013 1.42285e-17
4536.00366 1.46236e-17
4537.49703 1.50071e-17
4539.00056 1.47805e-17
4540.50410 1.40351e-17
4541.99747 1.35348e-17
4543.50100 1.41876e-17
4545.00453 1.48557e-17
4546.49791 1.44065e-17
4548.00144 1.34980e-17
4549.49481 1.44241e-17
4550.99834 1.50893e-17
4552.50187 1.40329e-17
4553.99525 1.54381e-17
4555.49878 1.61759e-17
4557.00231 1.51226e-17
4558.49568 1.42477e-17
4559.99922 1.50166e-17
4561.50275 1.47450e-17
4562.99612 1.39528e-17
4564.49965 1.41006e-17
4566.00319 1.42359e-17
4567.49656 1.41772e-17
4569.00009 1.42327e-17
4570.50362 1.43241e-17
4571.99700 1.42163e-17
4573.50053 1.43435e-17
4575.00406 1.53461e-17
4576.49743 1.49122e-17
4578.00097 1.44210e-17
4579.50450 1.53928e-17
4580.99787 1.48729e-17
4582.50140 1.45922e-17
4583.99478 1.42250e-17
4585.49831 1.43691e-17
4587.00184 1.45133e-17
4588.49521 1.46574e-17
4589.99874 1.48015e-17
4591.50228 1.49456e-17
4592.99565 1.50897e-17
4594.49918 1.50892e-17
4596.00271 1.47070e-17
4597.49609 1.45721e-17
4598.99962 1.48283e-17
4600.50315 1.52252e-17
4601.99652 1.46046e-17
4603.50005 1.42971e-17
4605.00359 1.39461e-17
4606.49696 1.41539e-17
4608.00049 1.44659e-17
4609.50402 1.53590e-17
4610.99740 1.47763e-17
4612.50093 1.38542e-17
4614.00446 1.40770e-17
4615.49783 1.43412e-17
4617.00137 1.34251e-17
4618.50490 1.38264e-17
4619.99827 1.36276e-17
4621.50180 1.28297e-17
4622.99518 1.39989e-17
4624.49871 1.50813e-17
4626.00224 1.52459e-17
4627.49561 1.38503e-17
4628.99915 1.48388e-17
4630.50268 1.41660e-17
4631.99605 1.39004e-17
4633.49958 1.39591e-17
4635.00311 1.43785e-17
4636.49649 1.46116e-17
4638.00002 1.58131e-17
4639.50355 1.40653e-17
4640.99692 1.51164e-17
4642.50046 1.47522e-17
4644.00399 1.46548e-17
4645.49736 1.37055e-17
4647.00089 1.37347e-17
4648.50443 1.34910e-17
4649.99780 1.29410e-17
4651.50133 1.38317e-17
4653.00486 1.42685e-17
4654.49824 1.41916e-17
4656.00177 1.37508e-17
4657.49514 1.41175e-17
4658.99867 1.43816e-17
4660.50220 1.40233e-17
4661.99558 1.43292e-17
4663.49911 1.37779e-17
4665.00264 1.34245e-17
4666.49601 1.39337e-17
4667.99955 1.37369e-17
4669.50308 1.39202e-17
4670.99645 1.39593e-17
4672.49998 1.39394e-17
4674.00352 1.38652e-17
4675.49689 1.31072e-17
4677.00042 1.25037e-17
4678.50395 1.25970e-17
4679.99733 1.28556e-17
4681.50086 1.30315e-17
4683.00439 1.28604e-17
4684.49776 1.36244e-17
4686.00129 1.33376e-17
4687.50483 1.28241e-17
4688.99820 1.25811e-17
4690.50173 1.32867e-17
4691.99510 1.22285e-17
4693.49864 1.14685e-17
4695.00217 1.19456e-17
4696.49554 1.21500e-17
4697.99907 1.22805e-17
4699.50260 1.20937e-17
4700.99598 1.21101e-17
4702.49951 1.29889e-17
4704.00304 1.21871e-17
4705.49642 1.19845e-17
4706.99995 1.23738e-17
4708.50348 1.15020e-17
4709.99685 1.34332e-17
4711.50038 1.28454e-17
4713.00392 1.19448e-17
4714.49729 1.22798e-17
4716.00082 1.25770e-17
4717.50435 1.18092e-17
4718.99773 1.21086e-17
4720.50126 1.22700e-17
4722.00479 1.18064e-17
4723.49816 1.16053e-17
4725.00169 1.17111e-17
4726.49507 1.15305e-17
4727.99860 1.17870e-17
4729.50213 1.23336e-17
4730.99550 1.29683e-17
4732.49904 1.29482e-17
4734.00257 1.20799e-17
4735.49594 1.21455e-17
4736.99947 1.21123e-17
4738.50301 1.19250e-17
4739.99638 1.15274e-17
4741.49991 1.12624e-17
4743.00344 1.15783e-17
4744.49682 1.18869e-17
4746.00035 1.19582e-17
4747.50388 1.22250e-17
4748.99725 1.14910e-17
4750.50079 1.16539e-17
4752.00432 1.11576e-17
4753.49769 1.18164e-17
4755.00122 1.17168e-17
4756.50475 1.18637e-17
4757.99813 1.13030e-17
4759.50166 1.14829e-17
4760.99503 1.22815e-17
4762.49856 1.23985e-17
4764.00210 1.20550e-17
4765.49547 1.23574e-17
4766.99900 1.18870e-17
4768.50253 1.09382e-17
4769.99591 1.19482e-17
4771.49944 1.15720e-17
4773.00297 1.20052e-17
4774.49634 1.09772e-17
4775.99988 1.11683e-17
4777.50341 1.17475e-17
4778.99678 1.17624e-17
4780.50031 1.12313e-17
4782.00384 1.07878e-17
4783.49722 1.14463e-17
4785.00075 1.15096e-17
4786.50428 1.08285e-17
4787.99765 1.07484e-17
4789.50119 1.06886e-17
4791.00472 1.17327e-17
4792.49809 1.11075e-17
4794.00162 1.02547e-17
4795.49500 1.14482e-17
4796.99853 1.08653e-17
4798.50206 1.01873e-17
4799.99543 1.10012e-17
4801.49897 1.11160e-17
4803.00250 1.08440e-17
4804.49587 1.06367e-17
4805.99940 1.03442e-17
4807.50293 1.03064e-17
4808.99631 1.08677e-17
4810.49984 1.08206e-17
4812.00337 1.11616e-17
4813.49674 1.15568e-17
4815.00028 1.05912e-17
4816.50381 1.06110e-17
4817.99718 1.05269e-17
4819.50071 1.06427e-17
4821.00425 1.09433e-17
4822.49762 1.12273e-17
4824.00115 1.14409e-17
4825.50468 1.09982e-17
4826.99806 9.98965e-18
4828.50159 1.06328e-17
4829.99496 1.09515e-17
4831.49849 1.12617e-17
4833.00202 1.14671e-17
4834.49540 1.08863e-17
4835.99893 1.05234e-17
4837.50246 1.05810e-17
4838.99583 1.12103e-17
4840.49937 1.21599e-17
4842.00290 1.07204e-17
4843.49627 9.40251e-18
4844.99980 9.69807e-18
4846.50333 1.09906e-17
4847.99671 1.14324e-17
4849.50024 1.10957e-17
4851.00377 1.13990e-17
4852.49715 1.07565e-17
4854.00068 1.13600e-17
4855.50421 1.11493e-17
4856.99758 1.11126e-17
4858.50111 1.10277e-17
4860.00465 1.11158e-17
4861.49802 1.08960e-17
4863.00155 1.10230e-17
4864.49492 1.07435e-17
4865.99846 1.05842e-17
4867.50199 1.11140e-17
4868.99536 1.13884e-17
4870.49889 1.15495e-17
4872.00242 1.07338e-17
4873.49580 1.05827e-17
4874.99933 1.14965e-17
4876.50286 1.14392e-17
4877.99623 1.09805e-17
4879.49977 1.10599e-17
4881.00330 1.12162e-17
4882.49667 1.05788e-17
4884.00020 1.02056e-17
4885.50374 1.06690e-17
4886.99711 1.10377e-17
4888.50064 1.12036e-17
4890.00417 1.12528e-17
4891.49755 1.11170e-17
4893.00108 1.05770e-17
4894.50461 1.07959e-17
4895.99798 1.00537e-17
4897.50152 1.00501e-17
4899.00505 1.08915e-17
4900.49842 1.12691e-17
4902.00195 1.04689e-17
4903.49532 1.10869e-17
4904.99886 1.12323e-17
4906.50239 1.14461e-17
4907.99576 1.00922e-17
4909.49929 9.69123e-18
4911.00283 1.05211e-17
4912.49620 1.02378e-17
4913.99973 9.39711e-18
4915.50326 9.93477e-18
4916.99664 1.02641e-17
4918.50017 1.14352e-17
4920.00370 1.07583e-17
4921.49707 1.07248e-17
4923.00061 1.06913e-17
4924.50414 1.06577e-17
4925.99751 1.06242e-17
4927.50104 1.05907e-17
4929.00457 1.05571e-17
4930.49795 1.05236e-17
4932.00148 1.04901e-17
4933.50501 1.04565e-17
4934.99838 1.04230e-17
4936.50192 1.03895e-17
4937.99529 1.03560e-17
4939.49882 1.03225e-17
4941.00235 1.02890e-17
4942.49573 1.02554e-17
4943.99926 1.02219e-17
4945.50279 1.01884e-17
4946.99616 1.01549e-17
4948.49970 1.01214e-17
4950.00323 1.00879e-17
4951.49660 1.00544e-17
4953.00013 1.00209e-17
4954.50366 9.98741e-18
4955.99704 9.95393e-18
4957.50057 9.92043e-18
4959.00410 1.01782e-17
4960.49747 1.05407e-17
4962.00101 1.14155e-17
4963.50454 1.11672e-17
4964.99791 1.08369e-17
4966.50144 1.11008e-17
4968.00497 1.10107e-17
4969.49835 1.03165e-17
4971.00188 1.04204e-17
4972.49525 1.05874e-17
4973.99878 9.97369e-18
4975.50232 9.29809e-18
4976.99569 1.09386e-17
4978.49922 1.12214e-17
4980.00275 1.02904e-17
4981.49613 1.05517e-17
4982.99966 1.18700e-17
4984.50319 1.04764e-17
4985.99656 1.06824e-17
4987.50010 1.19652e-17
4989.00363 1.13098e-17
4990.49700 1.12499e-17
4992.00053 1.08813e-17
4993.50407 1.05615e-17
4994.99744 1.06950e-17
4996.50097 9.70967e-18
4998.00450 1.01470e-17
4999.49788 1.08059e-17
5001.00141 1.03717e-17
5002.50494 1.10901e-17
5003.99831 1.05696e-17
5005.50184 1.01935e-17
5006.99522 1.05384e-17
5008.49875 1.04038e-17
5010.00228 1.05645e-17
5011.49565 1.05815e-17
5012.99919 1.08138e-17
5014.50272 1.11118e-17
5015.99609 1.09374e-17
5017.49962 1.08557e-17
5019.00316 1.10886e-17
5020.49653 1.10800e-17
