# wavelength flux
3720.00230 1.11004e-17
3721.49568 6.73323e-18
3722.99921 6.96966e-18
3724.50274 7.71470e-18
3725.99611 9.55719e-18
3727.49964 8.72391e-18
3729.00318 9.62377e-18
3730.49655 9.11853e-18
3732.00008 9.19126e-18
3733.50361 9.33580e-18
3734.99699 1.07424e-17
3736.50052 8.76044e-18
3738.00405 6.64695e-18
3739.49742 8.04676e-18
3741.00095 1.06381e-17
3742.50449 1.19660e-17
3743.99786 1.01180e-17
3745.50139 7.72587e-18
3746.99476 7.91395e-18
3748.49830 7.74212e-18
3750.00183 7.23823e-18
3751.49520 6.93913e-18
3752.99873 8.46267e-18
3754.50227 6.80100e-18
3755.99564 9.60457e-18
3757.49917 8.96969e-18
3759.00270 5.05681e-18
3760.49608 4.39864e-18
3761.99961 5.69886e-18
3763.50314 6.32052e-18
3764.99651 7.29203e-18
3766.50005 7.52258e-18
3768.00358 7.40542e-18
3769.49695 7.28826e-18
3771.00048 7.30258e-18
3772.50401 7.31690e-18
3773.99739 7.33122e-18
3775.50092 7.34554e-18
3777.00445 7.35985e-18
3778.49782 7.37417e-18
3780.00136 7.38849e-18
3781.50489 7.40280e-18
3782.99826 7.41712e-18
3784.50179 7.43143e-18
3785.99517 7.44575e-18
3787.49870 7.46006e-18
3789.00223 7.47438e-18
3790.49560 7.48869e-18
3791.99914 7.50301e-18
3793.50267 7.51732e-18
3794.99604 7.53163e-18
3796.49957 7.54595e-18
3798.00310 7.56026e-18
3799.49648 7.57457e-18
3801.00001 7.58888e-18
3802.50354 7.60320e-18
3803.99691 7.61750e-18
3805.50045 7.63181e-18
3807.00398 7.64613e-18
3808.49735 6.81475e-18
3810.00088 6.70066e-18
3811.50441 6.51039e-18
3812.99779 7.29233e-18
3814.50132 7.29213e-18
3816.00485 7.09515e-18
3817.49823 7.58731e-18
3819.00176 8.19190e-18
3820.49513 6.91663e-18
3821.99866 4.84654e-18
3823.50219 4.94713e-18
3824.99557 4.94699e-18
3826.49910 6.26642e-18
3828.00263 6.99298e-18
3829.49600 7.08959e-18
3830.99954 6.82728e-18
3832.50307 8.26152e-18
3833.99644 7.70538e-18
3835.49997 5.19885e-18
3837.00351 6.04552e-18
3838.49688 7.19215e-18
3840.00041 6.16938e-18
3841.50394 5.97210e-18
3842.99732 6.75621e-18
3844.50085 5.57235e-18
3846.00438 4.64899e-18
3847.49775 6.04459e-18
3849.00128 8.55448e-18
3850.50482 7.27861e-18
3851.99819 5.99195e-18
3853.50172 5.93733e-18
3854.99509 7.03145e-18
3856.49863 7.58385e-18
3858.00216 7.33639e-18
3859.49553 8.18418e-18
3860.99906 9.63026e-18
3862.50260 8.44701e-18
3863.99597 6.94260e-18
3865.49950 6.82051e-18
3867.00303 6.11061e-18
3868.49640 6.94916e-18
3869.99994 7.83907e-18
3871.50347 8.47291e-18
3872.99684 6.48338e-18
3874.50037 5.42306e-18
3876.00391 8.13662e-18
3877.49728 9.50893e-18
3879.00081 7.43748e-18
3880.50434 8.96223e-18
3881.99772 8.31322e-18
3883.50125 8.19148e-18
3885.00478 8.20076e-18
3886.49815 6.57637e-18
3888.00169 6.87641e-18
3889.49506 8.87807e-18
3890.99859 8.15473e-18
3892.50212 7.55391e-18
3893.99550 9.26775e-18
3895.49903 9.51842e-18
3897.00256 7.41183e-18
3898.49593 6.26884e-18
3899.99946 7.27898e-18
3901.50300 8.94418e-18
3902.99637 8.19709e-18
3904.49990 7.03845e-18
3906.00343 1.03303e-17
3907.49681 1.13563e-17
3909.00034 1.13248e-17
3910.50387 1.17211e-17
3911.99724 8.93874e-18
3913.50077 6.93332e-18
3915.00431 8.72033e-18
3916.49768 9.59058e-18
3918.00121 9.19304e-18
3919.50474 1.04120e-17
3920.99812 1.02754e-17
3922.50165 9.44124e-18
3923.99502 9.79071e-18
3925.49855 1.08582e-17
3927.00209 1.12952e-17
3928.49546 1.02482e-17
3929.99899 8.13793e-18
3931.50252 8.68736e-18
3932.99590 1.03068e-17
3934.49943 8.73449e-18
3936.00296 1.05777e-17
3937.49633 1.11421e-17
3938.99987 1.03028e-17
3940.50340 1.03786e-17
3941.99677 9.26178e-18
3943.50030 9.75298e-18
3945.00383 1.15779e-17
3946.49721 1.04631e-17
3948.00074 8.75071e-18
3949.50427 8.55451e-18
3950.99764 8.65312e-18
3952.50118 1.01776e-17
3954.00471 9.03289e-18
3955.49808 8.22239e-18
3957.00161 9.80048e-18
3958.49499 1.01831e-17
3959.99852 1.08829e-17
3961.50205 8.82125e-18
3962.99542 1.02846e-17
3964.49896 1.21983e-17
3966.00249 1.10391e-17
3967.49586 1.01249e-17
3968.99939 9.37546e-18
3970.50292 9.81041e-18
3971.99630 1.09945e-17
3973.49983 1.20832e-17
3975.00336 1.19798e-17
3976.49673 1.15845e-17
3978.00027 1.20623e-17
3979.50380 1.12427e-17
3980.99717 1.00353e-17
3982.50070 1.08927e-17
3984.00424 1.11307e-17
3985.49761 1.12204e-17
3987.00114 1.11238e-17
3988.50467 1.00403e-17
3989.99805 1.03722e-17
3991.50158 9.10916e-18
3992.99495 8.38731e-18
3994.49848 9.33980e-18
3996.00201 8.90751e-18
3997.49539 9.10874e-18
3998.99892 9.12774e-18
4000.50245 1.00722e-17
4001.99582 1.19116e-17
4003.49936 1.28164e-17
4005.00289 1.11244e-17
4006.49626 1.00493e-17
4007.99979 9.58853e-18
4009.50333 8.62781e-18
4010.99670 1.06274e-17
4012.50023 1.04167e-17
4014.00376 8.03832e-18
4015.49714 9.94919e-18
4017.00067 1.10316e-17
4018.50420 1.03794e-17
4019.99757 1.01183e-17
4021.50110 8.93259e-18
4023.00464 1.00817e-17
4024.49801 1.10553e-17
4026.00154 9.33723e-18
4027.49491 9.89450e-18
4028.99845 1.08041e-17
4030.50198 9.93176e-18
4031.99535 9.61810e-18
4033.49888 9.76134e-18
4035.00241 8.38724e-18
4036.49579 8.49160e-18
4037.99932 9.87665e-18
4039.50285 1.24465e-17
4040.99623 1.02331e-17
4042.49976 9.27934e-18
4044.00329 1.15956e-17
4045.49666 1.05609e-17
4047.00019 9.91017e-18
4048.50373 1.00718e-17
4049.99710 9.42498e-18
4051.50063 9.47478e-18
4053.00416 9.78759e-18
4054.49754 9.93139e-18
4056.00107 1.00726e-17
4057.50460 9.95670e-18
4058.99797 1.10598e-17
4060.50150 1.04184e-17
4062.00504 9.34834e-18
4063.49841 9.42299e-18
4065.00194 9.50906e-18
4066.49532 8.96944e-18
4067.99885 1.00530e-17
4069.50238 1.13362e-17
4070.99575 1.01866e-17
4072.49928 1.02055e-17
4074.00282 1.13542e-17
4075.49619 1.23734e-17
4076.99972 1.14948e-17
4078.50325 1.02597e-17
4079.99663 1.01749e-17
4081.50016 1.08422e-17
4083.00369 9.52281e-18
4084.49706 9.69524e-18
4086.00060 1.13232e-17
4087.50413 9.59802e-18
4088.99750 8.43315e-18
4090.50103 9.84685e-18
4092.00456 1.02938e-17
4093.49794 1.16974e-17
4095.00147 1.11154e-17
4096.50500 1.09961e-17
4097.99837 9.41296e-18
4099.50191 9.75382e-18
4100.99528 1.06791e-17
4102.49881 9.45696e-18
4104.00234 8.55441e-18
4105.49572 9.92215e-18
4106.99925 1.07902e-17
4108.50278 9.57215e-18
4109.99615 9.11832e-18
4111.49968 8.99469e-18
4113.00322 1.02531e-17
4114.49659 1.07870e-17
4116.00012 1.17164e-17
4117.50365 1.18270e-17
4118.99703 1.10474e-17
4120.50056 1.02322e-17
4122.00409 9.80593e-18
4123.49746 9.97708e-18
4125.00100 9.59746e-18
4126.50453 1.07466e-17
4127.99790 9.99295e-18
4129.50143 9.92687e-18
4130.99481 1.16022e-17
4132.49834 1.14825e-17
4134.00187 1.11047e-17
4135.49524 1.04069e-17
4136.99878 9.58133e-18
4138.50231 9.86345e-18
4139.99568 1.01076e-17
4141.49921 9.63693e-18
4143.00274 9.44902e-18
4144.49612 9.57417e-18
4145.99965 1.06285e-17
4147.50318 1.12808e-17
4148.99655 9.93640e-18
4150.50009 1.03884e-17
4152.00362 1.04549e-17
4153.49699 1.07370e-17
4155.00052 9.29289e-18
4156.50406 1.00417e-17
4157.99743 1.07338e-17
4159.50096 9.41663e-18
4161.00449 7.78176e-18
4162.49787 9.37902e-18
4164.00140 9.42041e-18
4165.50493 9.97988e-18
4166.99830 1.00731e-17
4168.50183 8.51950e-18
4169.99521 9.12695e-18
4171.49874 9.28995e-18
4173.00227 8.45008e-18
4174.49564 9.60447e-18
4175.99918 1.02014e-17
4177.50271 1.01560e-17
4178.99608 1.09306e-17
4180.49961 1.02579e-17
4182.00315 1.04497e-17
4183.49652 9.27443e-18
4185.00005 9.11640e-18
4186.50358 9.48388e-18
4187.99695 1.00020e-17
4189.50049 9.73860e-18
4191.00402 9.30438e-18
4192.49739 1.04882e-17
4194.00092 1.09195e-17
4195.50446 1.05012e-17
4196.99783 9.96695e-18
4198.50136 9.87402e-18
4200.00489 9.02105e-18
4201.49827 9.66819e-18
4203.00180 1.06653e-17
4204.49517 9.89201e-18
4205.99870 9.45222e-18
4207.50223 1.01554e-17
4208.99561 1.07011e-17
4210.49914 1.02661e-17
4212.00267 1.02825e-17
4213.49604 1.01522e-17
4214.99958 1.01664e-17
4216.50311 1.04299e-17
4217.99648 9.77618e-18
4219.50001 9.30427e-18
4221.00355 1.00877e-17
4222.49692 1.03434e-17
4224.00045 1.01388e-17
4225.50398 1.06525e-17
4226.99736 1.00324e-17
4228.50089 1.07337e-17
4230.00442 1.03547e-17
4231.49779 1.07113e-17
4233.00133 1.10125e-17
4234.50486 1.03289e-17
4235.99823 1.03256e-17
4237.50176 9.94282e-18
4238.99514 9.58561e-18
4240.49867 9.14132e-18
4242.00220 8.87570e-18
4243.49557 8.87829e-18
4244.99910 8.26119e-18
4246.50264 9.24813e-18
4247.99601 9.47293e-18
4249.49954 9.69304e-18
4251.00307 9.48786e-18
4252.49645 9.23393e-18
4253.99998 1.03881e-17
4255.50351 1.04509e-17
4256.99688 9.42341e-18
4258.50042 1.04766e-17
4260.00395 9.67002e-18
4261.49732 9.33865e-18
4263.00085 1.05473e-17
4264.50438 1.12399e-17
4265.99776 1.06306e-17
4267.50129 1.03242e-17
4269.00482 1.00019e-17
4270.49819 1.01148e-17
4272.00173 1.08448e-17
4273.49510 1.03840e-17
4274.99863 1.05940e-17
4276.50216 9.54884e-18
4277.99554 8.62997e-18
4279.49907 8.91801e-18
4281.00260 9.32538e-18
4282.49597 9.29339e-18
4283.99950 9.26801e-18
4285.50304 9.47779e-18
4286.99641 9.83183e-18
4288.49994 9.82429e-18
4290.00347 1.01444e-17
4291.49685 1.08513e-17
4293.00038 9.96529e-18
4294.50391 1.03457e-17
4295.99728 1.10889e-17
4297.50082 1.05520e-17
4299.00435 9.74552e-18
4300.49772 9.09314e-18
4302.00125 8.94244e-18
4303.50479 8.60386e-18
4304.99816 1.00748e-17
4306.50169 1.00026e-17
4307.99506 1.04303e-17
4309.49860 9.56661e-18
4311.00213 8.02191e-18
4312.49550 1.03570e-17
4313.99903 9.24011e-18
4315.50256 8.65146e-18
4316.99594 9.78251e-18
4318.49947 1.11793e-17
4320.00300 8.20197e-18
4321.49637 8.95521e-18
4322.99991 1.00073e-17
4324.50344 9.26546e-18
4325.99681 9.24556e-18
4327.50034 7.83396e-18
4329.00388 8.15021e-18
4330.49725 7.83584e-18
4332.00078 7.86209e-18
4333.50431 9.19255e-18
4334.99768 8.85692e-18
4336.50122 9.07852e-18
4338.00475 8.71197e-18
4339.49812 8.82169e-18
4341.00165 9.05898e-18
4342.49503 8.98216e-18
4343.99856 8.58376e-18
4345.50209 7.48599e-18
4346.99546 7.62305e-18
4348.49900 8.59311e-18
4350.00253 8.93582e-18
4351.49590 8.77769e-18
4352.99943 9.08827e-18
4354.50297 8.97339e-18
4355.99634 8.36211e-18
4357.49987 7.87252e-18
4359.00340 7.92703e-18
4360.49678 8.05995e-18
4362.00031 8.16386e-18
4363.50384 8.85101e-18
4364.99721 7.89119e-18
4366.50074 6.99760e-18
4368.00428 7.18449e-18
4369.49765 7.52400e-18
4371.00118 7.56953e-18
4372.50471 8.32037e-18
4373.99809 8.75525e-18
4375.50162 7.78667e-18
4376.99499 7.79522e-18
4378.49852 8.23460e-18
4380.00205 7.10959e-18
4381.49543 6.88244e-18
4382.99896 7.91740e-18
4384.50249 7.32923e-18
4385.99587 6.99961e-18
4387.49940 7.25220e-18
4389.00293 6.77528e-18
4390.49630 6.61030e-18
4391.99983 7.43049e-18
4393.50337 7.10869e-18
4394.99674 7.15603e-18
4396.50027 8.46205e-18
4398.00380 9.23130e-18
4399.49718 7.91479e-18
4401.00071 7.67055e-18
4402.50424 8.55760e-18
4403.99761 7.86994e-18
4405.50115 7.54540e-18
4407.00468 7.47021e-18
4408.49805 7.25446e-18
4410.00158 7.67902e-18
4411.50511 7.62350e-18
4412.99849 8.46825e-18
4414.50202 8.43923e-18
4415.99539 8.41020e-18
4417.49892 8.38117e-18
4419.00246 8.35214e-18
4420.49583 8.32312e-18
4421.99936 8.29409e-18
4423.50289 8.26507e-18
4424.99627 8.23605e-18
4426.49980 8.20703e-18
4428.00333 8.17801e-18
4429.49670 8.14900e-18
4431.00023 8.11998e-18
4432.50377 8.09097e-18
4433.99714 8.06196e-18
4435.50067 8.03295e-18
4437.00420 8.00394e-18
4438.49758 7.97493e-18
4440.00111 7.94592e-18
4441.50464 7.91692e-18
4442.99801 7.88791e-18
4444.50155 7.85891e-18
4446.00508 7.82990e-18
4447.49845 7.80090e-18
4449.00198 7.77191e-18
4450.49536 7.74291e-18
4451.99889 7.71392e-18
4453.50242 6.98442e-18
4454.99579 9.25027e-18
4456.49932 9.08259e-18
4458.00286 8.96678e-18
4459.49623 8.27965e-18
4460.99976 8.73066e-18
4462.50329 8.34332e-18
4463.99667 9.05385e-18
4465.50020 1.00600e-17
4467.00373 9.58228e-18
4468.49710 9.43240e-18
4470.00064 8.68287e-18
4471.50417 9.10705e-18
4472.99754 9.92739e-18
4474.50107 1.02050e-17
4476.00461 9.45854e-18
4477.49798 9.35956e-18
4479.00151 1.00699e-17
4480.50504 1.01336e-17
4481.99842 9.25477e-18
4483.50195 8.83537e-18
4484.99532 9.63807e-18
4486.49885 9.46622e-18
4488.00238 9.29694e-18
4489.49576 1.03981e-17
4490.99929 1.07056e-17
4492.50282 9.93576e-18
4493.99619 9.71977e-18
4495.49973 9.68025e-18
4497.00326 9.75711e-18
4498.49663 1.04049e-17
4500.00016 1.08200e-17
4501.50370 1.04898e-17
4502.99707 1.02603e-17
4504.50060 1.07374e-17
4506.00413 1.14458e-17
4507.49751 1.11740e-17
4509.00104 1.05771e-17
4510.50457 1.05634e-17
4511.99794 1.11120e-17
4513.50147 1.13721e-17
4514.99485 1.21093e-17
4516.49838 1.12098e-17
4518.00191 1.12178e-17
4519.49528 1.10358e-17
4520.99882 1.16807e-17
4522.50235 1.15820e-17
4523.99572 1.12437e-17
4525.49925 1.25190e-17
4527.00278 1.33170e-17
4528.49616 1.23711e-17
4529.99969 1.29350e-17
4531.50322 1.22348e-17
4532.99660 1.37328e-17
4534.50013 1.25108e-17
4536.00366 1.15553e-17
4537.49703 1.16920e-17
4539.00056 1.25762e-17
4540.50410 1.20198e-17
4541.99747 1.10529e-17
4543.50100 1.13554e-17
4545.00453 1.14147e-17
4546.49791 1.17263e-17
4548.00144 1.20852e-17
4549.49481 1.29840e-17
4550.99834 1.37578e-17
4552.50187 1.27822e-17
4553.99525 1.30252e-17
4555.49878 1.42331e-17
4557.00231 1.40039e-17
4558.49568 1.41237e-17
4559.99922 1.40268e-17
4561.50275 1.43057e-17
4562.99612 1.46794e-17
4564.49965 1.31167e-17
4566.00319 1.32818e-17
4567.49656 1.41055e-17
4569.00009 1.50252e-17
4570.50362 1.55646e-17
4571.99700 1.49906e-17
4573.50053 1.44929e-17
4575.00406 1.46708e-17
4576.49743 1.54986e-17
4578.00097 1.51727e-17
4579.50450 1.51839e-17
4580.99787 1.48440e-17
4582.50140 1.50839e-17
4583.99478 1.55884e-17
4585.49831 1.52875e-17
4587.00184 1.42670e-17
4588.49521 1.49098e-17
4589.99874 1.54548e-17
4591.50228 1.45335e-17
4592.99565 1.48218e-17
4594.49918 1.51061e-17
4596.00271 1.45439e-17
4597.49609 1.43073e-17
4598.99962 1.40510e-17
4600.50315 1.43655e-17
4601.99652 1.44144e-17
4603.50005 1.50067e-17
4605.00359 1.45723e-17
4606.49696 1.45162e-17
4608.00049 1.42614e-17
4609.50402 1.37150e-17
4610.99740 1.44914e-17
4612.50093 1.49569e-17
4614.00446 1.41286e-17
4615.49783 1.45443e-17
4617.00137 1.47526e-17
4618.50490 1.45829e-17
4619.99827 1.46057e-17
4621.50180 1.39860e-17
4622.99518 1.44343e-17
4624.49871 1.45003e-17
4626.00224 1.40276e-17
4627.49561 1.37426e-17
4628.99915 1.40336e-17
4630.50268 1.38147e-17
4631.99605 1.36819e-17
4633.49958 1.40779e-17
4635.00311 1.38139e-17
4636.49649 1.39794e-17
4638.00002 1.43121e-17
4639.50355 1.43285e-17
4640.99692 1.36272e-17
4642.50046 1.28026e-17
4644.00399 1.33842e-17
4645.49736 1.40194e-17
4647.00089 1.45777e-17
4648.50443 1.40173e-17
4649.99780 1.41254e-17
4651.50133 1.41281e-17
4653.00486 1.40855e-17
4654.49824 1.40552e-17
4656.00177 1.34738e-17
4657.49514 1.27377e-17
4658.99867 1.31227e-17
4660.50220 1.35895e-17
4661.99558 1.37526e-17
4663.49911 1.34303e-17
4665.00264 1.29817e-17
4666.49601 1.19719e-17
4667.99955 1.20709e-17
4669.50308 1.22662e-17
4670.99645 1.27947e-17
4672.49998 1.36902e-17
4674.00352 1.20603e-17
4675.49689 1.14643e-17
4677.00042 1.16017e-17
4678.50395 1.20489e-17
4679.99733 1.23921e-17
4681.50086 1.26728e-17
4683.00439 1.28990e-17
4684.49776 1.27875e-17
4686.00129 1.19841e-17
4687.50483 1.21246e-17
4688.99820 1.24723e-17
4690.50173 1.26997e-17
4691.99510 1.30249e-17
4693.49864 1.25484e-17
4695.00217 1.22922e-17
4696.49554 1.24296e-17
4697.99907 1.14283e-17
4699.50260 1.05981e-17
4700.99598 1.12959e-17
4702.49951 1.27135e-17
4704.00304 1.22906e-17
4705.49642 1.09680e-17
4706.99995 1.16430e-17
4708.50348 1.12107e-17
4709.99685 1.11301e-17
4711.50038 1.23666e-17
4713.00392 1.18592e-17
4714.49729 1.11245e-17
4716.00082 1.12106e-17
4717.50435 1.21160e-17
4718.99773 1.17454e-17
4720.50126 1.08452e-17
4722.00479 1.07145e-17
4723.49816 1.09043e-17
4725.00169 1.11619e-17
4726.49507 1.12938e-17
4727.99860 1.06960e-17
4729.50213 1.13390e-17
4730.99550 1.20707e-17
4732.49904 1.07263e-17
4734.00257 1.09365e-17
4735.49594 1.18987e-17
4736.99947 1.15873e-17
4738.50301 1.10691e-17
4739.99638 1.05974e-17
4741.49991 1.09529e-17
4743.00344 1.06539e-17
4744.49682 1.10033e-17
4746.00035 1.10955e-17
4747.50388 1.12561e-17
4748.99725 1.06257e-17
4750.50079 1.07401e-17
4752.00432 1.12365e-17
4753.49769 1.14337e-17
4755.00122 1.18575e-17
4756.50475 1.17545e-17
4757.99813 1.12075e-17
4759.50166 1.11289e-17
4760.99503 1.11117e-17
4762.49856 1.04850e-17
4764.00210 1.07200e-17
4765.49547 1.07555e-17
4766.99900 1.13622e-17
4768.50253 1.20806e-17
4769.99591 1.15358e-17
4771.49944 9.76032e-18
4773.00297 9.69220e-18
4774.49634 1.01583e-17
4775.99988 9.60858e-18
4777.50341 1.01286e-17
4778.99678 1.06778e-17
4780.50031 1.04888e-17
4782.00384 1.02908e-17
4783.49722 1.02774e-17
4785.00075 1.05711e-17
4786.50428 9.79214e-18
4787.99765 1.05507e-17
4789.50119 1.04140e-17
4791.00472 9.90688e-18
4792.49809 9.24315e-18
4794.00162 9.68625e-18
4795.49500 1.04178e-17
4796.99853 9.92745e-18
4798.50206 1.03480e-17
4799.99543 1.07330e-17
4801.49897 1.09249e-17
4803.00250 1.02814e-17
4804.49587 1.11688e-17
4805.99940 1.05373e-17
4807.50293 1.01106e-17
4808.99631 1.00931e-17
4810.49984 1.07353e-17
4812.00337 1.09343e-17
4813.49674 1.10938e-17
4815.00028 1.05051e-17
4816.50381 1.02801e-17
4817.99718 9.81412e-18
4819.50071 1.07462e-17
4821.00425 9.83414e-18
4822.49762 1.00280e-17
4824.00115 9.41200e-18
4825.50468 1.01993e-17
4826.99806 1.11860e-17
4828.50159 1.06879e-17
4829.99496 1.08713e-17
4831.49849 1.08843e-17
4833.00202 1.02015e-17
4834.49540 1.00157e-17
4835.99893 1.04257e-17
4837.50246 1.03766e-17
4838.99583 1.07013e-17
4840.49937 1.11712e-17
4842.00290 1.12658e-17
4843.49627 1.10183e-17
4844.99980 1.09223e-17
4846.50333 1.04572e-17
4847.99671 9.69140e-18
4849.50024 9.80172e-18
4851.00377 1.03880e-17
4852.49715 1.00012e-17
4854.00068 9.51545e-18
4855.50421 9.92866e-18
4856.99758 1.09065e-17
4858.50111 1.11352e-17
4860.00465 1.04664e-17
4861.49802 1.05943e-17
4863.00155 1.11928e-17
4864.49492 1.13138e-17
4865.99846 1.12291e-17
4867.50199 1.07631e-17
4868.99536 1.08902e-17
4870.49889 1.12051e-17
4872.00242 1.08290e-17
4873.49580 1.16367e-17
4874.99933 1.15253e-17
4876.50286 1.07419e-17
4877.99623 1.06190e-17
4879.49977 1.02800e-17
4881.00330 1.00003e-17
4882.49667 9.65255e-18
4884.00020 1.08236e-17
4885.50374 9.84992e-18
4886.99711 1.03016e-17
4888.50064 1.06784e-17
4890.00417 1.10806e-17
4891.49755 1.05647e-17
4893.00108 1.15954e-17
4894.50461 1.08867e-17
4895.99798 1.04941e-17
4897.50152 1.08729e-17
4899.00505 1.14835e-17
4900.49842 1.10903e-17
4902.00195 1.07576e-17
4903.49532 1.06062e-17
4904.99886 1.03896e-17
4906.50239 1.08185e-17
4907.99576 1.03961e-17
4909.49929 1.04639e-17
4911.00283 1.02478e-17
4912.49620 1.03205e-17
4913.99973 1.07539e-17
4915.50326 1.08125e-17
4916.99664 1.08169e-17
4918.50017 9.90717e-18
4920.00370 9.62838e-18
4921.49707 9.62696e-18
4923.00061 9.62555e-18
4924.50414 9.62413e-18
4925.99751 9.62271e-18
4927.50104 9.62129e-18
4929.00457 9.61987e-18
4930.49795 9.61846e-18
4932.00148 9.61704e-18
4933.50501 9.61562e-18
4934.99838 9.61421e-18
4936.50192 9.61279e-18
4937.99529 9.61137e-18
4939.49882 9.60996e-18
4941.00235 9.60854e-18
4942.49573 9.60712e-18
4943.99926 9.60571e-18
4945.50279 9.60429e-18
4946.99616 9.60288e-18
4948.49970 9.60146e-18
4950.00323 9.60005e-18
4951.49660 9.59863e-18
4953.00013 9.59722e-18
4954.50366 9.59580e-18
4955.99704 9.59439e-18
4957.50057 9.59297e-18
4959.00410 1.01888e-17
4960.49747 1.10656e-17
4962.00101 1.02726e-17
4963.50454 9.64027e-18
4964.99791 1.12297e-17
4966.50144 1.04614e-17
4968.00497 1.04454e-17
4969.49835 1.00327e-17
4971.00188 9.90904e-18
4972.49525 1.08337e-17
4973.99878 1.01724e-17
4975.50232 9.98413e-18
4976.99569 1.02022e-17
4978.49922 9.24070e-18
4980.00275 1.01221e-17
4981.49613 1.11004e-17
4982.99966 1.10142e-17
4984.50319 1.07044e-17
4985.99656 1.09019e-17
4987.50010 1.04097e-17
4989.00363 9.23721e-18
4990.49700 1.03580e-17
4992.00053 1.09193e-17
4993.50407 1.01625e-17
4994.99744 9.47391e-18
4996.50097 9.40658e-18
4998.00450 9.90836e-18
4999.49788 9.98397e-18
5001.00141 9.72298e-18
5002.50494 9.58581e-18
5003.99831 9.91884e-18
5005.50184 1.07879e-17
5006.99522 1.00091e-17
5008.49875 9.98844e-18
5010.00228 1.01621e-17
5011.49565 1.02498e-17
5012.99919 1.04934e-17
5014.50272 1.06603e-17
5015.99609 1.03558e-17
5017.49962 1.00482e-17
5019.00316 1.10018e-17
5020.49653 1.09778e-17
