# wavelength flux
3500.00179 3.52981e-17
3501.99625 3.60957e-17
3504.00105 3.50393e-17
3505.99551 3.25504e-17
3508.00031 3.40241e-17
3509.99477 3.73884e-17
3511.99957 3.42262e-17
3514.00436 3.40234e-17
3515.99882 3.37668e-17
3518.00362 3.30652e-17
3519.99808 3.30115e-17
3522.00288 3.25265e-17
3523.99734 3.71218e-17
3526.00214 3.70396e-17
3527.99660 3.81289e-17
3530.00139 3.87060e-17
3531.99586 3.44126e-17
3534.00065 3.40897e-17
3535.99511 3.46946e-17
3537.99991 3.73549e-17
3540.00471 3.97043e-17
3541.99917 3.70437e-17
3544.00396 3.62240e-17
3545.99843 3.80747e-17
3548.00322 3.45462e-17
3549.99768 3.34336e-17
3552.00248 3.82314e-17
3553.99694 3.70378e-17
3556.00174 3.37965e-17
3557.99620 3.57511e-17
3560.00100 3.72627e-17
3561.99546 3.78370e-17
3564.00025 3.77690e-17
3565.99472 3.42398e-17
3567.99951 3.40799e-17
3570.00431 3.49216e-17
3571.99877 3.39339e-17
3574.00357 4.17009e-17
3575.99803 3.65229e-17
3578.00282 3.45758e-17
3579.99729 3.66422e-17
3582.00208 3.73348e-17
3583.99654 3.57225e-17
3586.00134 3.46841e-17
3587.99580 3.38993e-17
3590.00060 3.52173e-17
3591.99506 3.73722e-17
3593.99986 3.88342e-17
3596.00465 3.42616e-17
3597.99911 3.65873e-17
3600.00391 3.41437e-17
3601.99837 3.54854e-17
3604.00317 3.61228e-17
3605.99763 3.59771e-17
3608.00243 3.25826e-17
3609.99689 3.07416e-17
3612.00168 3.60445e-17
3613.99615 3.58992e-17
3616.00094 3.45755e-17
3617.99540 3.35175e-17
3620.00020 3.44716e-17
3622.00500 3.32822e-17
3623.99946 3.19349e-17
3626.00425 3.33514e-17
3627.99872 3.48858e-17
3630.00351 3.46491e-17
3631.99797 3.82157e-17
3634.00277 3.67505e-17
3635.99723 4.03271e-17
3638.00203 3.64086e-17
3639.99649 3.66203e-17
3642.00129 3.69110e-17
3643.99575 4.00744e-17
3646.00054 3.82560e-17
3647.99501 3.80324e-17
3649.99980 3.42413e-17
3652.00460 3.97834e-17
3653.99906 3.94938e-17
3656.00386 3.98488e-17
3657.99832 3.67723e-17
3660.00311 3.62870e-17
3661.99758 3.95990e-17
3664.00237 3.74845e-17
3665.99683 3.40059e-17
3668.00163 3.81293e-17
3669.99609 3.99276e-17
3672.00089 3.63075e-17
3673.99535 3.60072e-17
3676.00015 3.68214e-17
3677.99461 3.46736e-17
3679.99940 3.39288e-17
3682.00420 3.43501e-17
3683.99866 3.44832e-17
3686.00346 3.33729e-17
3687.99792 3.38595e-17
3690.00272 3.19785e-17
3691.99718 3.27790e-17
3694.00197 3.36968e-17
3695.99644 3.44572e-17
3698.00123 3.43681e-17
3699.99569 3.28426e-17
3702.00049 3.27541e-17
3703.99495 3.26396e-17
3705.99975 3.48344e-17
3708.00454 3.67018e-17
3709.99901 3.31572e-17
3712.00380 3.25475e-17
3713.99826 3.39840e-17
3716.00306 3.32963e-17
3717.99752 3.28695e-17
3720.00232 3.38230e-17
3721.99678 3.54268e-17
3724.00158 3.51039e-17
3725.99604 3.47293e-17
3728.00083 3.55902e-17
3729.99530 3.00809e-17
3732.00009 3.06048e-17
3734.00489 3.18171e-17
3735.99935 3.37430e-17
3738.00415 3.47589e-17
3739.99861 3.42555e-17
3742.00340 3.33632e-17
3743.99787 3.31200e-17
3746.00266 3.39275e-17
3747.99712 3.34640e-17
3750.00192 3.44654e-17
3751.99638 3.25508e-17
3754.00118 3.45494e-17
3755.99564 3.29985e-17
3758.00044 3.30410e-17
3759.99490 3.44166e-17
3761.99969 3.30483e-17
3764.00449 3.13056e-17
3765.99895 3.24220e-17
3768.00375 3.70415e-17
3769.99821 3.54156e-17
3772.00301 3.20203e-17
3773.99747 3.23861e-17
3776.00226 3.29584e-17
3777.99673 3.15937e-17
3780.00152 3.32501e-17
3781.99598 3.48799e-17
3784.00078 3.48447e-17
3785.99524 3.37132e-17
3788.00004 3.48645e-17
3790.00483 3.56930e-17
3791.99930 3.36731e-17
3794.00409 3.28267e-17
3795.99855 3.25604e-17
3798.00335 3.21654e-17
3799.99781 3.37532e-17
3802.00261 3.49283e-17
3803.99707 3.43273e-17
3806.00187 3.45369e-17
3807.99633 3.19046e-17
3810.00112 3.38504e-17
3811.99559 3.67463e-17
3814.00038 3.29077e-17
3815.99484 3.19871e-17
3817.99964 3.30705e-17
3820.00444 3.24457e-17
3821.99890 3.30792e-17
3824.00369 3.41744e-17
3825.99816 3.44351e-17
3828.00295 3.57732e-17
3829.99741 3.48280e-17
3832.00221 3.70371e-17
3859.99702 3.37790e-17
3862.00181 3.54695e-17
3863.99627 3.57036e-17
3866.00107 3.44694e-17
3867.99553 3.32103e-17
3870.00033 3.41721e-17
3871.99479 3.49166e-17
3873.99959 3.50358e-17
3876.00438 3.57797e-17
3877.99884 3.42797e-17
3880.00364 3.45392e-17
3881.99810 3.53848e-17
3884.00290 3.56949e-17
3885.99736 3.49605e-17
3888.00216 3.52834e-17
3889.99662 3.31746e-17
3892.00141 3.24669e-17
3893.99588 3.37826e-17
3896.00067 3.50087e-17
3897.99513 3.58781e-17
3899.99993 3.54248e-17
3902.00473 3.63064e-17
3903.99919 3.75182e-17
3906.00398 3.79288e-17
3907.99845 3.73739e-17
3910.00324 3.54475e-17
3911.99770 3.35601e-17
3914.00250 3.55836e-17
3915.99696 3.75047e-17
3918.00176 3.61638e-17
3919.99622 3.44937e-17
3922.00102 3.49044e-17
3923.99548 3.69635e-17
3926.00027 3.58775e-17
3927.99474 3.41964e-17
3929.99953 3.37959e-17
3932.00433 3.49665e-17
3933.99879 3.62633e-17
3936.00359 3.57233e-17
3937.99805 3.34491e-17
3940.00284 3.48593e-17
3941.99731 3.52818e-17
3944.00210 3.59572e-17
3945.99656 3.45831e-17
3948.00136 3.34878e-17
3949.99582 3.34425e-17
3952.00062 3.46992e-17
3953.99508 3.52097e-17
3955.99988 3.32561e-17
3958.00467 3.32741e-17
3959.99913 3.35447e-17
3962.00393 3.53682e-17
3963.99839 3.46157e-17
3966.00319 3.35732e-17
3967.99765 3.14459e-17
3970.00245 3.41010e-17
3971.99691 3.49387e-17
3974.00170 3.44267e-17
3975.99617 3.43940e-17
3978.00096 3.46765e-17
3979.99542 3.69878e-17
3982.00022 3.51403e-17
3983.99468 3.44021e-17
3985.99948 3.38027e-17
3988.00427 3.30274e-17
3989.99874 3.34231e-17
3992.00353 3.34789e-17
3993.99799 3.59758e-17
3996.00279 3.93774e-17
3997.99725 3.95828e-17
4000.00205 3.64809e-17
4001.99651 3.53667e-17
4004.00131 3.52460e-17
4005.99577 3.53893e-17
4008.00056 3.42510e-17
4009.99503 3.37663e-17
4011.99982 3.52663e-17
4014.00462 3.51081e-17
4015.99908 3.61552e-17
4018.00388 3.42397e-17
4019.99834 3.43454e-17
4022.00313 3.44887e-17
4023.99760 3.62751e-17
4026.00239 3.63051e-17
4027.99685 3.51188e-17
4030.00165 3.49735e-17
4031.99611 3.37129e-17
4034.00091 3.50590e-17
4035.99537 3.57908e-17
4038.00017 3.36666e-17
4040.00496 3.23321e-17
4041.99942 3.04224e-17
4044.00422 3.10794e-17
4045.99868 3.53152e-17
4048.00348 3.57082e-17
4049.99794 3.32864e-17
4052.00274 3.20163e-17
4053.99720 3.49605e-17
4056.00199 3.36031e-17
4057.99646 3.40085e-17
4060.00125 3.27518e-17
4061.99571 3.02213e-17
4064.00051 2.92532e-17
4065.99497 3.06083e-17
4067.99977 3.18130e-17
4070.00456 3.34291e-17
4071.99903 3.25610e-17
4074.00382 3.17931e-17
4075.99828 3.03767e-17
4078.00308 3.22413e-17
4079.99754 3.34815e-17
4082.00234 3.27639e-17
4083.99680 3.52625e-17
4086.00160 3.37348e-17
4087.99606 3.19710e-17
4090.00085 3.06812e-17
4091.99532 3.19327e-17
4094.00011 3.38934e-17
4095.99457 3.57786e-17
4097.99937 3.35931e-17
4100.00417 3.36980e-17
4101.99863 3.38030e-17
4104.00342 3.42686e-17
4105.99789 3.51569e-17
4108.00268 3.32472e-17
4109.99714 3.15373e-17
4112.00194 3.25250e-17
4113.99640 3.23691e-17
4116.00120 3.34432e-17
4117.99566 3.21320e-17
4120.00046 3.28580e-17
4121.99492 3.25159e-17
4123.99971 3.15782e-17
4126.00451 3.23038e-17
4127.99897 3.13541e-17
4130.00377 3.11987e-17
4131.99823 3.36107e-17
4134.00303 3.40376e-17
4135.99749 3.40553e-17
4138.00228 3.25361e-17
4139.99675 3.17857e-17
4142.00154 3.21012e-17
4143.99600 3.20326e-17
4146.00080 3.20878e-17
4147.99526 3.16973e-17
4150.00006 3.30152e-17
4152.00485 3.36766e-17
4153.99932 3.27539e-17
4156.00411 3.22027e-17
4157.99857 3.32844e-17
4160.00337 3.36237e-17
4161.99783 3.16013e-17
4164.00263 3.16565e-17
4165.99709 3.24655e-17
4168.00189 3.30023e-17
4169.99635 3.04383e-17
4172.00114 3.06789e-17
4173.99561 3.28951e-17
4176.00040 3.39375e-17
4177.99486 3.24616e-17
4179.99966 3.29237e-17
4182.00446 3.14856e-17
4183.99892 3.25151e-17
4186.00371 3.23109e-17
4187.99818 3.14410e-17
4190.00297 3.15946e-17
4191.99743 3.15632e-17
4194.00223 3.14087e-17
4195.99669 3.25724e-17
4198.00149 3.23561e-17
4199.99595 3.14626e-17
4202.00075 3.18745e-17
4203.99521 3.18677e-17
4206.00000 3.07165e-17
4208.00480 2.95288e-17
4209.99926 3.12816e-17
4212.00406 3.21235e-17
4213.99852 3.11822e-17
4216.00332 2.98724e-17
4217.99778 3.14638e-17
4220.00257 3.16046e-17
4221.99704 3.17452e-17
4224.00183 3.09401e-17
4225.99629 3.07493e-17
4228.00109 3.11355e-17
4229.99555 3.07115e-17
4232.00035 3.17235e-17
4233.99481 3.13241e-17
4235.99961 3.26299e-17
4238.00440 3.46833e-17
4239.99886 3.52766e-17
4242.00366 3.23759e-17
4243.99812 2.87410e-17
4246.00292 2.98867e-17
4247.99738 3.19751e-17
4250.00218 3.39647e-17
4251.99664 3.22675e-17
4254.00143 2.85998e-17
4255.99590 2.88262e-17
4258.00069 3.20996e-17
4259.99515 3.23129e-17
4261.99995 3.12049e-17
4264.00475 3.12837e-17
4265.99921 3.22306e-17
4268.00400 3.03166e-17
4269.99847 2.94911e-17
4272.00326 3.25395e-17
4273.99772 3.26301e-17
4276.00252 3.27573e-17
4277.99698 3.18221e-17
4280.00178 3.19494e-17
4281.99624 3.16616e-17
4284.00104 3.07761e-17
4285.99550 3.21479e-17
4288.00029 3.14212e-17
4289.99476 3.15606e-17
4291.99955 3.39311e-17
4294.00435 3.19367e-17
4295.99881 3.48302e-17
4298.00361 3.34213e-17
4299.99807 3.36575e-17
4302.00286 3.08246e-17
4303.99733 3.09882e-17
4306.00212 3.25030e-17
4307.99658 3.40171e-17
4310.00138 3.16367e-17
4311.99584 2.88682e-17
4314.00064 3.24984e-17
4315.99510 3.36949e-17
4317.99990 3.12803e-17
4320.00469 3.22578e-17
4321.99915 3.07073e-17
4324.00395 3.35311e-17
4325.99841 3.47990e-17
4328.00321 3.28603e-17
4329.99767 3.19788e-17
4332.00247 3.30397e-17
4333.99693 3.34934e-17
4336.00172 3.18601e-17
4337.99619 3.21077e-17
4340.00098 3.54353e-17
4341.99544 3.42391e-17
4344.00024 3.17828e-17
4345.99470 3.16302e-17
4347.99950 3.22652e-17
4350.00429 3.36266e-17
4351.99876 3.23716e-17
4354.00355 3.47132e-17
4355.99801 3.39305e-17
4358.00281 3.27004e-17
4359.99727 3.29834e-17
4362.00207 2.98428e-17
4363.99653 2.93522e-17
4366.00133 3.29365e-17
4367.99579 3.18169e-17
4370.00058 2.93320e-17
4371.99505 3.05214e-17
4373.99984 3.41505e-17
4376.00464 3.39011e-17
4377.99910 3.31326e-17
4380.00390 3.31974e-17
4381.99836 3.35880e-17
4384.00315 3.34113e-17
4385.99762 3.32468e-17
4388.00241 3.36250e-17
4389.99687 3.33278e-17
4392.00167 3.38987e-17
4393.99613 3.28543e-17
4396.00093 3.13285e-17
4397.99539 3.17428e-17
4400.00019 3.33975e-17
4402.00498 3.32331e-17
4403.99944 3.32013e-17
4406.00424 3.30130e-17
4407.99870 3.27526e-17
4410.00350 3.17585e-17
4411.99796 3.06686e-17
4414.00276 3.18277e-17
4415.99722 3.31666e-17
4418.00201 3.28944e-17
4419.99648 3.22018e-17
4422.00127 3.19419e-17
4423.99573 3.07694e-17
4426.00053 3.03419e-17
4427.99499 3.11750e-17
4429.99979 3.21518e-17
4432.00458 3.20242e-17
4433.99905 3.21245e-17
4436.00384 3.26926e-17
4437.99830 3.02508e-17
4440.00310 3.07111e-17
4441.99756 3.13989e-17
4444.00236 3.11159e-17
4445.99682 3.04975e-17
4448.00162 3.08735e-17
4449.99608 3.20873e-17
4452.00087 3.17445e-17
4453.99534 3.09829e-17
4456.00013 3.10952e-17
4458.00493 3.16379e-17
4459.99939 3.17738e-17
4462.00419 3.21129e-17
4463.99865 3.12326e-17
4466.00344 3.01616e-17
4489.99899 3.04791e-17
4492.00379 3.01977e-17
4493.99825 3.04643e-17
4496.00305 3.13379e-17
4497.99751 3.03184e-17
4500.00230 3.10370e-17
4501.99677 3.13030e-17
4504.00156 3.10337e-17
4505.99602 2.96228e-17
4508.00082 3.02338e-17
4509.99528 3.15338e-17
4512.00008 3.20370e-17
4513.99454 3.17440e-17
4515.99934 3.08811e-17
4518.00413 3.05172e-17
4519.99859 3.09608e-17
4522.00339 3.06921e-17
4523.99785 3.04353e-17
4526.00265 3.06413e-17
4527.99711 3.07998e-17
4530.00191 3.11004e-17
4531.99637 3.08675e-17
4534.00116 2.94733e-17
4535.99563 2.98332e-17
4538.00042 3.07142e-17
4539.99488 3.09197e-17
4541.99968 3.02135e-17
4544.00448 2.94011e-17
4545.99894 2.96423e-17
4548.00373 3.16816e-17
4549.99820 3.11887e-17
4552.00299 3.07553e-17
4553.99745 3.07830e-17
4556.00225 3.02081e-17
4557.99671 3.02359e-17
4560.00151 3.08899e-17
4561.99597 3.02916e-17
4564.00077 2.98354e-17
4565.99523 3.02056e-17
4568.00002 3.01272e-17
4569.99449 2.87747e-17
4571.99928 2.93808e-17
4574.00408 3.03875e-17
4575.99854 3.07807e-17
4578.00334 3.04076e-17
4579.99780 3.03056e-17
4582.00259 2.95323e-17
4583.99706 3.01961e-17
4586.00185 3.05652e-17
4587.99631 3.03809e-17
4590.00111 3.11264e-17
4591.99557 3.05185e-17
4594.00037 3.05814e-17
4595.99483 3.00562e-17
4597.99963 3.00133e-17
4600.00442 3.00880e-17
4601.99888 2.92226e-17
4604.00368 2.94266e-17
4605.99814 3.00768e-17
4608.00294 2.91650e-17
4609.99740 2.87116e-17
4612.00220 2.90446e-17
4613.99666 2.96003e-17
4616.00145 2.98273e-17
4617.99592 2.97611e-17
4620.00071 2.95894e-17
4621.99517 2.99920e-17
4623.99997 2.93868e-17
4626.00477 3.00001e-17
4627.99923 3.12338e-17
4630.00402 3.08277e-17
4631.99849 3.03868e-17
4634.00328 2.90449e-17
4635.99774 2.96809e-17
4638.00254 3.03985e-17
4639.99700 2.92681e-17
4642.00180 2.94126e-17
4643.99626 2.88323e-17
4646.00106 2.82874e-17
4647.99552 2.89927e-17
4650.00031 2.85999e-17
4652.00511 2.76702e-17
4653.99957 2.93555e-17
4656.00437 3.03398e-17
4657.99883 2.90254e-17
4660.00363 2.79449e-17
4661.99809 2.81359e-17
4664.00288 2.83501e-17
4665.99735 2.86109e-17
4668.00214 2.91161e-17
4669.99660 2.94464e-17
4672.00140 2.85304e-17
4673.99586 2.91052e-17
4676.00066 2.88416e-17
4677.99512 2.86363e-17
4679.99992 2.90942e-17
4682.00471 2.75864e-17
4683.99917 2.74630e-17
4686.00397 2.86764e-17
4687.99843 2.84249e-17
4690.00323 2.75113e-17
4691.99769 2.76668e-17
4694.00249 2.79499e-17
4695.99695 2.82909e-17
4698.00174 2.83880e-17
4699.99621 2.87867e-17
4702.00100 2.78396e-17
4703.99546 2.75309e-17
4706.00026 2.86831e-17
4707.99472 2.82120e-17
4709.99952 2.79381e-17
4712.00431 2.79077e-17
4713.99878 2.82942e-17
4716.00357 2.81478e-17
4717.99803 2.81752e-17
4720.00283 2.84109e-17
4721.99729 2.93522e-17
4724.00209 2.95643e-17
4725.99655 2.66310e-17
4728.00135 2.74449e-17
4729.99581 2.75764e-17
4732.00060 2.68875e-17
4733.99507 2.67418e-17
4735.99986 2.70582e-17
4738.00466 2.72128e-17
4739.99912 2.80252e-17
4742.00392 2.72793e-17
4743.99838 2.69145e-17
4746.00317 2.63308e-17
4747.99764 2.64392e-17
4750.00243 2.66744e-17
4751.99689 2.72436e-17
4754.00169 2.76513e-17
4755.99615 2.77477e-17
4758.00095 2.74756e-17
4759.99541 2.74799e-17
4762.00021 2.68397e-17
4763.99467 2.64529e-17
4765.99946 2.66991e-17
4768.00426 2.65886e-17
4769.99872 2.60987e-17
4772.00352 2.61723e-17
4773.99798 2.61425e-17
4776.00278 2.54578e-17
4777.99724 2.72888e-17
4780.00203 2.70290e-17
4781.99650 2.68268e-17
4784.00129 2.71870e-17
4785.99575 2.64341e-17
4788.00055 2.63354e-17
4789.99501 2.60074e-17
4791.99981 2.62872e-17
4794.00460 2.58562e-17
4795.99907 2.52421e-17
4798.00386 2.59457e-17
4799.99832 2.65001e-17
4802.00312 2.60810e-17
4803.99758 2.60169e-17
4806.00238 2.61474e-17
4807.99684 2.57172e-17
4810.00164 2.62137e-17
4811.99610 2.67099e-17
4814.00089 2.67029e-17
4815.99536 2.61359e-17
4818.00015 2.55121e-17
4819.99461 2.55397e-17
4821.99941 2.56243e-17
4824.00421 2.57774e-17
4825.99867 2.63870e-17
4828.00346 2.72244e-17
4829.99793 2.57571e-17
4832.00272 2.50547e-17
4833.99718 2.65531e-17
4836.00198 2.68880e-17
4837.99644 2.60264e-17
4840.00124 2.68853e-17
4841.99570 2.74022e-17
4844.00050 2.63019e-17
4845.99496 2.52250e-17
4847.99975 2.59467e-17
4850.00455 2.63040e-17
4851.99901 2.65587e-17
4854.00381 2.65631e-17
4855.99827 2.59081e-17
4858.00307 2.60491e-17
4859.99753 2.56900e-17
4862.00232 2.63194e-17
4863.99679 2.73686e-17
4866.00158 2.65213e-17
4867.99604 2.58674e-17
4870.00084 2.62351e-17
4871.99530 2.69996e-17
4874.00010 2.61873e-17
4875.99456 2.51373e-17
4877.99936 2.49380e-17
4880.00415 2.47955e-17
4881.99861 2.61939e-17
4884.00341 2.59832e-17
4885.99787 2.51271e-17
4888.00267 2.49394e-17
4889.99713 2.45368e-17
4892.00193 2.52997e-17
4893.99639 2.57456e-17
4896.00118 2.46985e-17
4897.99565 2.49746e-17
4900.00044 2.60871e-17
4901.99490 2.60916e-17
4903.99970 2.60509e-17
4906.00450 2.60328e-17
4907.99896 2.56647e-17
4910.00375 2.54322e-17
4911.99822 2.57980e-17
4914.00301 2.59041e-17
4915.99747 2.56605e-17
4918.00227 2.51915e-17
4919.99673 2.51060e-17
4922.00153 2.60462e-17
4923.99599 2.60506e-17
4926.00079 2.60101e-17
4927.99525 2.55641e-17
4930.00004 2.42852e-17
4932.00484 2.45940e-17
4933.99930 2.53416e-17
4936.00410 2.63363e-17
4937.99856 2.62619e-17
4940.00336 2.67161e-17
4941.99782 2.56637e-17
4944.00261 2.63651e-17
4945.99708 2.63021e-17
4948.00187 2.59358e-17
4949.99633 2.54574e-17
4952.00113 2.54172e-17
4953.99559 2.57810e-17
4956.00039 2.71657e-17
4957.99485 2.67099e-17
4959.99965 2.54357e-17
4962.00444 2.58440e-17
4963.99890 2.54562e-17
4966.00370 2.56177e-17
4967.99816 2.57679e-17
4970.00296 2.60189e-17
4971.99742 2.72103e-17
4974.00222 2.68898e-17
4975.99668 2.44654e-17
4978.00147 2.51864e-17
4979.99594 2.60413e-17
4982.00073 2.64260e-17
4983.99519 2.66875e-17
4985.99999 2.48251e-17
4988.00479 2.48858e-17
4989.99925 2.49129e-17
4992.00404 2.61463e-17
4993.99851 2.59386e-17
4996.00330 2.57979e-17
4997.99776 2.71417e-17
5027.99737 2.98172e-17
5030.00216 2.69865e-17
5031.99662 2.54906e-17
5034.00142 2.53952e-17
5035.99588 2.59441e-17
5038.00068 2.60041e-17
5039.99514 2.52427e-17
5041.99994 2.56025e-17
5044.00473 2.54740e-17
5045.99919 2.47909e-17
5048.00399 2.94976e-17
5049.99845 2.95012e-17
5052.00325 2.59913e-17
5053.99771 2.61288e-17
5056.00251 2.57012e-17
5057.99697 2.59051e-17
5060.00176 2.63304e-17
5061.99623 2.61024e-17
5064.00102 2.55093e-17
5065.99548 2.64101e-17
5068.00028 2.61269e-17
5069.99474 2.62531e-17
5071.99954 2.62354e-17
5074.00433 2.60630e-17
5075.99880 2.67195e-17
5078.00359 2.58621e-17
5079.99805 2.71258e-17
5082.00285 2.70527e-17
5083.99731 2.58206e-17
5086.00211 2.73924e-17
5087.99657 2.58187e-17
5090.00137 2.51725e-17
5091.99583 2.67984e-17
5094.00062 2.62955e-17
5095.99509 2.56607e-17
5186.00423 2.61970e-17
5187.99869 2.64196e-17
5190.00348 2.54870e-17
5191.99795 2.47401e-17
5194.00274 2.47124e-17
5195.99720 2.56538e-17
5198.00200 2.59743e-17
5199.99646 2.59354e-17
5202.00126 2.51458e-17
5203.99572 2.44218e-17
5206.00052 2.50468e-17
5207.99498 2.63130e-17
5209.99977 2.57306e-17
5212.00457 2.58223e-17
5213.99903 2.67723e-17
5216.00383 2.57883e-17
5217.99829 2.52718e-17
5220.00309 2.53201e-17
5221.99755 2.57157e-17
5224.00234 2.53515e-17
5225.99681 2.52153e-17
5228.00160 2.46236e-17
5229.99606 2.45419e-17
5232.00086 2.48831e-17
5233.99532 2.47146e-17
5236.00012 2.43620e-17
5238.00491 2.41613e-17
5239.99938 2.48164e-17
5242.00417 2.47889e-17
5243.99863 2.42309e-17
5246.00343 2.43876e-17
5247.99789 2.43386e-17
5250.00269 2.43005e-17
5251.99715 2.41650e-17
5254.00195 2.38999e-17
5255.99641 2.40457e-17
5258.00120 2.44400e-17
5259.99567 2.45965e-17
5262.00046 2.42342e-17
5263.99492 2.42070e-17
5265.99972 2.46766e-17
5268.00452 2.42390e-17
5269.99898 2.42442e-17
5272.00377 2.47782e-17
5273.99824 2.49667e-17
5276.00303 2.43676e-17
5277.99749 2.39738e-17
5280.00229 2.44535e-17
5281.99675 2.44910e-17
5284.00155 2.39681e-17
5285.99601 2.44690e-17
5288.00081 2.50989e-17
5289.99527 2.46732e-17
5292.00006 2.44414e-17
5294.00486 2.42636e-17
5295.99932 2.40106e-17
5298.00412 2.37038e-17
5299.99858 2.37522e-17
5302.00338 2.40480e-17
5303.99784 2.44726e-17
5306.00263 2.40586e-17
5307.99710 2.35050e-17
5310.00189 2.33170e-17
5311.99635 2.29465e-17
5314.00115 2.29306e-17
5315.99561 2.34086e-17
5318.00041 2.37576e-17
5319.99487 2.35913e-17
5321.99967 2.35538e-17
5324.00446 2.33340e-17
5325.99892 2.32858e-17
5328.00372 2.29589e-17
5329.99818 2.36721e-17
5332.00298 2.39776e-17
5333.99744 2.35222e-17
5336.00224 2.30991e-17
5337.99670 2.27405e-17
5340.00149 2.28211e-17
5341.99596 2.36512e-17
5344.00075 2.37102e-17
5345.99521 2.24100e-17
5348.00001 2.28223e-17
5349.99447 2.32024e-17
5351.99927 2.33897e-17
5354.00406 2.37481e-17
5355.99853 2.32618e-17
5358.00332 2.31712e-17
5359.99778 2.29204e-17
5362.00258 2.24239e-17
5363.99704 2.31239e-17
5366.00184 2.34819e-17
5367.99630 2.35515e-17
5370.00110 2.37385e-17
5371.99556 2.38080e-17
5374.00035 2.32694e-17
5375.99482 2.27950e-17
5377.99961 2.29287e-17
5380.00441 2.32435e-17
5381.99887 2.34730e-17
5384.00367 2.37770e-17
5385.99813 2.39743e-17
5388.00292 2.37454e-17
5389.99739 2.35699e-17
5392.00218 2.36287e-17
5393.99664 2.36875e-17
5396.00144 2.36611e-17
5397.99590 2.35709e-17
