# wavelength flux
3472.10415 1.32299e-17
3473.57145 1.33182e-17
3475.04880 1.57070e-17
3476.51610 1.59269e-17
3477.98340 1.43248e-17
3479.45070 1.27872e-17
3480.92805 9.95643e-18
3482.39535 1.20263e-17
3483.86265 1.48552e-17
3485.32995 1.83126e-17
3486.80730 1.17559e-17
3488.27460 1.07021e-17
3489.74190 1.32777e-17
3491.21925 1.66043e-17
3492.68655 8.68444e-18
3494.15385 1.02478e-17
3495.62115 1.43228e-17
3497.09850 9.66951e-18
3498.56580 9.97400e-18
3500.03310 1.58744e-17
3501.50040 1.29901e-17
3502.97775 1.18821e-17
3504.44505 1.03571e-17
3505.91235 1.02034e-17
3507.38970 1.18127e-17
3508.85700 1.40656e-17
3510.32430 1.35534e-17
3511.79160 1.34331e-17
3513.26895 9.86495e-18
3514.73625 1.23029e-17
3516.20355 1.30388e-17
3517.67085 9.87186e-18
3519.14820 1.79275e-17
3520.61550 1.19677e-17
3522.08280 1.00126e-17
3523.56015 1.10422e-17
3525.02745 8.64404e-18
3526.49475 1.46012e-17
3527.96205 1.14506e-17
3529.43940 1.22230e-17
3530.90670 8.29102e-18
3532.37400 7.59965e-18
3533.84130 1.12581e-17
3535.31865 1.57584e-17
3536.78595 1.20774e-17
3538.25325 1.34534e-17
3539.73060 1.29062e-17
3541.19790 1.18831e-17
3542.66520 1.24097e-17
3544.13250 8.85642e-18
3545.60985 1.25436e-17
3547.07715 1.39186e-17
3548.54445 1.37802e-17
3550.01175 8.48437e-18
3551.48910 7.53319e-18
3552.95640 6.29463e-18
3554.42370 6.23304e-18
3555.90105 9.54727e-18
3557.36835 1.44047e-17
3558.83565 9.28963e-18
3560.30295 9.73911e-18
3561.78030 6.91772e-18
3563.24760 8.24994e-18
3564.71490 9.85105e-18
3566.18220 7.76500e-18
3567.65955 8.79923e-18
3569.12685 1.01124e-17
3570.59415 1.16703e-17
3572.07150 6.33038e-18
3573.53880 5.05597e-18
3575.00610 9.59997e-18
3576.47340 1.34469e-17
3577.95075 9.66800e-18
3579.41805 9.50600e-18
3580.88535 9.31706e-18
3582.35265 1.11422e-17
3583.83000 1.27013e-17
3585.29730 7.88483e-18
3586.76460 8.56029e-18
3588.24195 1.08770e-17
3589.70925 1.06624e-17
3591.17655 1.01777e-17
3592.64385 1.05518e-17
3594.12120 9.62269e-18
3595.58850 9.26041e-18
3597.05580 1.19383e-17
3598.52310 1.23798e-17
3600.00045 1.29313e-17
3601.46775 9.44911e-18
3602.93505 9.93264e-18
3604.41240 1.08454e-17
3605.87970 1.18033e-17
3607.34700 1.14994e-17
3608.81430 1.29869e-17
3610.29165 1.09559e-17
3611.75895 7.50603e-18
3613.22625 8.62201e-18
3614.69355 1.31282e-17
3616.17090 8.21393e-18
3617.63820 5.90216e-18
3619.10550 9.97136e-18
3620.58285 1.18319e-17
3622.05015 9.36052e-18
3623.51745 1.14612e-17
3624.98475 7.30470e-18
3626.46210 9.52500e-18
3627.92940 7.32331e-18
3629.39670 6.54034e-18
3630.86400 1.01979e-17
3632.34135 1.22332e-17
3633.80865 8.03951e-18
3635.27595 7.82662e-18
3636.75330 8.83158e-18
3638.22060 7.75101e-18
3639.68790 8.80414e-18
3641.15520 7.98211e-18
3642.63255 4.17328e-18
3644.09985 5.57212e-18
3645.56715 1.20945e-17
3647.03445 1.29243e-17
3648.51180 1.09743e-17
3649.97910 1.10153e-17
3651.44640 1.20784e-17
3652.92375 1.10582e-17
3654.39105 8.55711e-18
3655.85835 9.55512e-18
3657.32565 8.42543e-18
3658.80300 8.78800e-18
3660.27030 1.04295e-17
3661.73760 1.03887e-17
3663.20490 1.17540e-17
3664.68225 1.22003e-17
3666.14955 1.44379e-17
3667.61685 1.49236e-17
3669.09420 1.39728e-17
3670.56150 1.17948e-17
3672.02880 1.39092e-17
3673.49610 1.25834e-17
3674.97345 1.17779e-17
3676.44075 1.67146e-17
3677.90805 1.67104e-17
3679.37535 1.26489e-17
3680.85270 1.39441e-17
3682.32000 1.43026e-17
3683.78730 1.60550e-17
3685.26465 1.62870e-17
3686.73195 1.63171e-17
3688.19925 1.59392e-17
3689.66655 1.59405e-17
3691.14390 1.48028e-17
3692.61120 1.57023e-17
3694.07850 1.44982e-17
3695.54580 1.37623e-17
3697.02315 1.90054e-17
3698.49045 1.60549e-17
3699.95775 1.53557e-17
3701.43510 1.51069e-17
3702.90240 1.38850e-17
3704.36970 1.49619e-17
3705.83700 1.48846e-17
3707.31435 1.61897e-17
3708.78165 1.57071e-17
3710.24895 1.47558e-17
3711.71625 1.27012e-17
3713.19360 1.26489e-17
3714.66090 1.23298e-17
3716.12820 1.24712e-17
3717.60555 1.42439e-17
3719.07285 1.39832e-17
3720.54015 1.31948e-17
3722.00745 1.13888e-17
3723.48480 1.16105e-17
3724.95210 1.46275e-17
3726.41940 1.05715e-17
3727.88670 1.05943e-17
3729.36405 1.10740e-17
3730.83135 9.53953e-18
3732.29865 1.15473e-17
3733.77600 1.17102e-17
3735.24330 1.01557e-17
3736.71060 9.12515e-18
3738.17790 8.59189e-18
3739.65525 1.01967e-17
3741.12255 8.80668e-18
3742.58985 8.77219e-18
3744.05715 8.37500e-18
3745.53450 8.36801e-18
3747.00180 7.55664e-18
3748.46910 5.69742e-18
3749.94645 6.83915e-18
3751.41375 8.34320e-18
3752.88105 8.01575e-18
3754.34835 9.51692e-18
3755.82570 8.40015e-18
3757.29300 7.16152e-18
3758.76030 6.58216e-18
3760.22760 5.69693e-18
3761.70495 5.31018e-18
3763.17225 5.56834e-18
3764.63955 5.41357e-18
3766.11690 4.90424e-18
3767.58420 6.61959e-18
3769.05150 6.04905e-18
3770.51880 5.28192e-18
3771.99615 4.57835e-18
3773.46345 4.70794e-18
3774.93075 6.60677e-18
3776.39805 4.79669e-18
3777.87540 4.05235e-18
3779.34270 6.09426e-18
3780.81000 4.73944e-18
3782.28735 5.67829e-18
3783.75465 6.11122e-18
3785.22195 4.44063e-18
3786.68925 3.95955e-18
3788.16660 4.82027e-18
3789.63390 7.09901e-18
3791.10120 6.11277e-18
3792.56850 4.07186e-18
3794.04585 4.98896e-18
3795.51315 5.74691e-18
3796.98045 3.64054e-18
3798.45780 4.22535e-18
3799.92510 5.34602e-18
3801.39240 6.91068e-18
3802.85970 4.62732e-18
3804.33705 4.47698e-18
3805.80435 6.03682e-18
3807.27165 5.32347e-18
3808.73895 4.26757e-18
3810.21630 6.05460e-18
3811.68360 6.69337e-18
3813.15090 7.12658e-18
3814.62825 4.48070e-18
3816.09555 4.62181e-18
3817.56285 5.60287e-18
3819.03015 4.50443e-18
3820.50750 4.54031e-18
3821.97480 4.66630e-18
3823.44210 4.83343e-18
3824.91945 5.13878e-18
3826.38675 6.29613e-18
3827.85405 7.49067e-18
3829.32135 5.50674e-18
3830.79870 6.19303e-18
3832.26600 6.70216e-18
3833.73330 6.23131e-18
3835.20060 5.53646e-18
3836.67795 6.10826e-18
3838.14525 7.14821e-18
3839.61255 5.73004e-18
3841.07985 6.11821e-18
3842.55720 8.03474e-18
3844.02450 6.75361e-18
3845.49180 6.87342e-18
3846.96915 5.83748e-18
3848.43645 6.98169e-18
3849.90375 8.08407e-18
3851.37105 7.84092e-18
3852.84840 7.38407e-18
3854.31570 6.55608e-18
3855.78300 7.58111e-18
3857.25030 7.67047e-18
3858.72765 9.06704e-18
3860.19495 8.41516e-18
3861.66225 7.00537e-18
3863.13960 7.10884e-18
3864.60690 7.92001e-18
3866.07420 7.66854e-18
3867.54150 7.34625e-18
3869.01885 1.03857e-17
3870.48615 1.07708e-17
3871.95345 8.48547e-18
3873.43080 1.05134e-17
3874.89810 1.18395e-17
3876.36540 1.34148e-17
3877.83270 1.20064e-17
3879.31005 9.81086e-18
3880.77735 1.16843e-17
3882.24465 1.30261e-17
3883.71195 1.33971e-17
3885.18930 1.36230e-17
3886.65660 1.11959e-17
3888.12390 1.34468e-17
3889.60125 1.29103e-17
3891.06855 1.28591e-17
3892.53585 1.48970e-17
3894.00315 1.53874e-17
3895.48050 1.54106e-17
3896.94780 1.46849e-17
3898.41510 1.39183e-17
3899.88240 1.55558e-17
3901.35975 1.46698e-17
3902.82705 1.54316e-17
3904.29435 1.51900e-17
3905.76165 1.66936e-17
3907.23900 1.65673e-17
3908.70630 1.65367e-17
3910.17360 1.69437e-17
3911.65095 1.56491e-17
3913.11825 1.59311e-17
3914.58555 1.77602e-17
3916.05285 1.75495e-17
3917.53020 1.54162e-17
3918.99750 1.78502e-17
3920.46480 1.86295e-17
3921.94215 1.97919e-17
3923.40945 2.03263e-17
3924.87675 2.07193e-17
3926.34405 2.13572e-17
3927.82140 2.19263e-17
3929.28870 2.22508e-17
3930.75600 1.98128e-17
3932.22330 2.05608e-17
3933.70065 2.00677e-17
3935.16795 2.00702e-17
3936.63525 2.17263e-17
3938.11260 2.23187e-17
3939.57990 2.40837e-17
3941.04720 2.54086e-17
3942.51450 2.46178e-17
3943.99185 2.35891e-17
3945.45915 2.48773e-17
3946.92645 2.58024e-17
3948.39375 2.38936e-17
3949.87110 2.32930e-17
3951.33840 2.26827e-17
3952.80570 2.29556e-17
3954.28305 2.37326e-17
3955.75035 2.22388e-17
3957.21765 2.32483e-17
3958.68495 2.50048e-17
3960.16230 2.42110e-17
3961.62960 2.39983e-17
3963.09690 2.27265e-17
3964.56420 2.22906e-17
3966.04155 2.27448e-17
3967.50885 2.32320e-17
3968.97615 2.22679e-17
3970.45350 2.32802e-17
3971.92080 2.43708e-17
3973.38810 2.37623e-17
3974.85540 2.34007e-17
3976.33275 2.47901e-17
3977.80005 2.45703e-17
3979.26735 2.23056e-17
3980.73465 2.16449e-17
3982.21200 2.15671e-17
3983.67930 2.41019e-17
3985.14660 2.18078e-17
3986.62395 2.06879e-17
3988.09125 1.97004e-17
3989.55855 1.98004e-17
3991.02585 2.06408e-17
3992.50320 2.00906e-17
3993.97050 2.09951e-17
3995.43780 2.11912e-17
3996.90510 2.21173e-17
3998.38245 2.04427e-17
3999.84975 2.11862e-17
4001.31705 2.24202e-17
4002.79440 2.37349e-17
4004.26170 2.28530e-17
4005.72900 2.13612e-17
4007.19630 2.12549e-17
4008.67365 2.21192e-17
4010.14095 2.28739e-17
4011.60825 2.36479e-17
4013.07555 2.40200e-17
4014.55290 2.32356e-17
4016.02020 2.16266e-17
4017.48750 2.26543e-17
4018.96485 2.10504e-17
4020.43215 2.32629e-17
4021.89945 2.20043e-17
4023.36675 2.06393e-17
4024.84410 2.15085e-17
4026.31140 2.11348e-17
4027.77870 1.98909e-17
4029.24600 2.10516e-17
4030.72335 2.00695e-17
4032.19065 2.25198e-17
4033.65795 2.27785e-17
4035.13530 2.06695e-17
4036.60260 2.16165e-17
4038.06990 2.10851e-17
4039.53720 1.93393e-17
4041.01455 2.02367e-17
4042.48185 1.99226e-17
4043.94915 1.99918e-17
4045.41645 1.94224e-17
4046.89380 1.94701e-17
4048.36110 2.05128e-17
4049.82840 2.04644e-17
4051.30575 1.97091e-17
4052.77305 1.82498e-17
4054.24035 1.78152e-17
4055.70765 1.96261e-17
4057.18500 1.95132e-17
4058.65230 1.82391e-17
4060.11960 1.69092e-17
4061.58690 1.60232e-17
4063.06425 1.50334e-17
4064.53155 1.50115e-17
4065.99885 1.66495e-17
4067.47620 1.60658e-17
4068.94350 1.59451e-17
4070.41080 1.58602e-17
4071.87810 1.73205e-17
4073.35545 1.71588e-17
4074.82275 1.47805e-17
4076.29005 1.46855e-17
4077.75735 1.58447e-17
4079.23470 1.55639e-17
4080.70200 1.62897e-17
4082.16930 1.60148e-17
4083.64665 1.69118e-17
4085.11395 1.57573e-17
4086.58125 1.63025e-17
4088.04855 1.55070e-17
4089.52590 1.46415e-17
4090.99320 1.48504e-17
4092.46050 1.54845e-17
4093.92780 1.55187e-17
4095.40515 1.67408e-17
4096.87245 1.74341e-17
4098.33975 1.54070e-17
4099.81710 1.55876e-17
4101.28440 1.60769e-17
4102.75170 1.53932e-17
4104.21900 1.55792e-17
4105.69635 1.59463e-17
4107.16365 1.55353e-17
4108.63095 1.55795e-17
4110.09825 1.44732e-17
4111.57560 1.40993e-17
4113.04290 1.48863e-17
4114.51020 1.40133e-17
4115.98755 1.36761e-17
4117.45485 1.32536e-17
4118.92215 1.12875e-17
4120.38945 1.11508e-17
4121.86680 1.17514e-17
4123.33410 1.14995e-17
4124.80140 1.15153e-17
4126.26870 1.15945e-17
4127.74605 1.18139e-17
4129.21335 1.29964e-17
4130.68065 1.14921e-17
4132.15800 1.23294e-17
4133.62530 1.24636e-17
4135.09260 1.27890e-17
4136.55990 1.36741e-17
4138.03725 1.27046e-17
4139.50455 1.30438e-17
4140.97185 1.28489e-17
4142.43915 1.32479e-17
4143.91650 1.37437e-17
4145.38380 1.44329e-17
4146.85110 1.43389e-17
4148.32845 1.33488e-17
4149.79575 1.47122e-17
4151.26305 1.35884e-17
4152.73035 1.19758e-17
4154.20770 1.35609e-17
4155.67500 1.32645e-17
4157.14230 1.53284e-17
4158.60960 1.40270e-17
4160.08695 1.25770e-17
4161.55425 1.41814e-17
4163.02155 1.33415e-17
4164.49890 1.21079e-17
4165.96620 1.27244e-17
4167.43350 1.35771e-17
4168.90080 1.23290e-17
4170.37815 1.27329e-17
4171.84545 1.22491e-17
4173.31275 1.29103e-17
4174.78005 1.23018e-17
4176.25740 1.19391e-17
4177.72470 1.24957e-17
4179.19200 1.22576e-17
4180.66935 1.23269e-17
4182.13665 1.26449e-17
4183.60395 1.32352e-17
4185.07125 1.34204e-17
4186.54860 1.35138e-17
4188.01590 1.34024e-17
4189.48320 1.33335e-17
4190.95050 1.34987e-17
4192.42785 1.35585e-17
4193.89515 1.35116e-17
4195.36245 1.33462e-17
4196.83980 1.44553e-17
4198.30710 1.45836e-17
4199.77440 1.49533e-17
4201.24170 1.41287e-17
4202.71905 1.32396e-17
4204.18635 1.34292e-17
4205.65365 1.35430e-17
4207.12095 1.34552e-17
4208.59830 1.36164e-17
4210.06560 1.37972e-17
4211.53290 1.39730e-17
4213.01025 1.35142e-17
4214.47755 1.34959e-17
4215.94485 1.34111e-17
4217.41215 1.25043e-17
4218.88950 1.26643e-17
4220.35680 1.26683e-17
4221.82410 1.22965e-17
4223.29140 1.25583e-17
4224.76875 1.27803e-17
4226.23605 1.28776e-17
4227.70335 1.21064e-17
4229.18070 1.26507e-17
4230.64800 1.29190e-17
4232.11530 1.24862e-17
4233.58260 1.35967e-17
4235.05995 1.28156e-17
4236.52725 1.28811e-17
4237.99455 1.29033e-17
4239.46185 1.16075e-17
4240.93920 1.31985e-17
4242.40650 1.28464e-17
4243.87380 1.30334e-17
4245.35115 1.29304e-17
4246.81845 1.30908e-17
4248.28575 1.25219e-17
4249.75305 1.27321e-17
4251.23040 1.36785e-17
4252.69770 1.39515e-17
4254.16500 1.30854e-17
4255.63230 1.24488e-17
4257.10965 1.28041e-17
4258.57695 1.37484e-17
4260.04425 1.30200e-17
4261.52160 1.29147e-17
4262.98890 1.28815e-17
4264.45620 1.36609e-17
4265.92350 1.38601e-17
4267.40085 1.32967e-17
4268.86815 1.51805e-17
4270.33545 1.47659e-17
4271.81280 1.42830e-17
4273.28010 1.46357e-17
4274.74740 1.44393e-17
4276.21470 1.49048e-17
4277.69205 1.37200e-17
4279.15935 1.36514e-17
4280.62665 1.42406e-17
4282.09395 1.42185e-17
4283.57130 1.51730e-17
4285.03860 1.43127e-17
4286.50590 1.48473e-17
4287.98325 1.47344e-17
4289.45055 1.41702e-17
4290.91785 1.38000e-17
4292.38515 1.41312e-17
4293.86250 1.43163e-17
4295.32980 1.44209e-17
4296.79710 1.47138e-17
4298.26440 1.56369e-17
4299.74175 1.47354e-17
4301.20905 1.42449e-17
4302.67635 1.51027e-17
4304.14365 1.58390e-17
4305.62100 1.56110e-17
4307.08830 1.48888e-17
4308.55560 1.57435e-17
4310.03295 1.61064e-17
4311.50025 1.57305e-17
4312.96755 1.52833e-17
4314.43485 1.56738e-17
4315.91220 1.60696e-17
4317.37950 1.49618e-17
4318.84680 1.52162e-17
4320.32415 1.66764e-17
4321.79145 1.74593e-17
4323.25875 1.58678e-17
4324.72605 1.51966e-17
4326.20340 1.48287e-17
4327.67070 1.58560e-17
4329.13800 1.58430e-17
4330.60530 1.54926e-17
4332.08265 1.55104e-17
4333.54995 1.62461e-17
4335.01725 1.57498e-17
4336.49460 1.62139e-17
4337.96190 1.66751e-17
4339.42920 1.54324e-17
4340.89650 1.55535e-17
4342.37385 1.61809e-17
4343.84115 1.59532e-17
4345.30845 1.48839e-17
4346.77575 1.59764e-17
4348.25310 1.64319e-17
4349.72040 1.59338e-17
4351.18770 1.67862e-17
4352.65500 1.67321e-17
4354.13235 1.72696e-17
4355.59965 1.68669e-17
4357.06695 1.53081e-17
4358.54430 1.56224e-17
4360.01160 1.52440e-17
4361.47890 1.54238e-17
4362.94620 1.42359e-17
4364.42355 1.45726e-17
4365.89085 1.45943e-17
4367.35815 1.43571e-17
4368.83550 1.36611e-17
4370.30280 1.49794e-17
4371.77010 1.42062e-17
4373.23740 1.39956e-17
4374.71475 1.37396e-17
4376.18205 1.41887e-17
4377.64935 1.45690e-17
4379.11665 1.34344e-17
4380.59400 1.29042e-17
4382.06130 1.23783e-17
4383.52860 1.23646e-17
4385.00595 1.29134e-17
4386.47325 1.25622e-17
4387.94055 1.17497e-17
4389.40785 1.17032e-17
4390.88520 1.16465e-17
4392.35250 1.24452e-17
4393.81980 1.25178e-17
4395.28710 1.19425e-17
4396.76445 1.14018e-17
4398.23175 1.10464e-17
4399.69905 1.09242e-17
4401.17640 1.04648e-17
4402.64370 1.01563e-17
4404.11100 9.79905e-18
4405.57830 9.84335e-18
4407.05565 9.98599e-18
4408.52295 1.07768e-17
4409.99025 1.03276e-17
4411.45755 9.88705e-18
4412.93490 1.01203e-17
4414.40220 9.99600e-18
4415.86950 9.55510e-18
4417.34685 9.32220e-18
4418.81415 9.53245e-18
4420.28145 9.56786e-18
4421.74875 9.38011e-18
4423.22610 8.89536e-18
4424.69340 9.44080e-18
4426.16070 9.74999e-18
4427.62800 9.46716e-18
4429.10535 9.62606e-18
4430.57265 9.28598e-18
4432.03995 9.49022e-18
4433.51730 9.83714e-18
4434.98460 9.84009e-18
4436.45190 1.02113e-17
4437.91920 1.12012e-17
4439.39655 1.13499e-17
4440.86385 1.06950e-17
4442.33115 1.07619e-17
4443.79845 1.06295e-17
4445.27580 1.01447e-17
4446.74310 1.05331e-17
4448.21040 1.00869e-17
4449.67770 1.00156e-17
4451.15505 1.03670e-17
4452.62235 1.10332e-17
4454.08965 1.08357e-17
4455.56700 1.05292e-17
4457.03430 9.53232e-18
4458.50160 1.00007e-17
4459.96890 1.07059e-17
4461.44625 9.92829e-18
4462.91355 1.01748e-17
4464.38085 1.17116e-17
4465.85820 1.19103e-17
4467.32550 1.14387e-17
4468.79280 1.05087e-17
4470.26010 1.13771e-17
4471.73745 1.16906e-17
4473.20475 1.17519e-17
4474.67205 1.21677e-17
4476.13935 1.19313e-17
4477.61670 1.23519e-17
4479.08400 1.25212e-17
4480.55130 1.33003e-17
4482.02865 1.25804e-17
4483.49595 1.22211e-17
4484.96325 1.34699e-17
4486.43055 1.37951e-17
4487.90790 1.22342e-17
4489.37520 1.26010e-17
4490.84250 1.33832e-17
4492.30980 1.40526e-17
4493.78715 1.37941e-17
4495.25445 1.41064e-17
4496.72175 1.38751e-17
4498.19910 1.40677e-17
4499.66640 1.39360e-17
4501.13370 1.44387e-17
4502.60100 1.38338e-17
4504.07835 1.34311e-17
4505.54565 1.51023e-17
4507.01295 1.44523e-17
4508.48025 1.51985e-17
4509.95760 1.61471e-17
4511.42490 1.61438e-17
4512.89220 1.61592e-17
4514.36955 1.53234e-17
4515.83685 1.54840e-17
4517.30415 1.55365e-17
4518.77145 1.68870e-17
4520.24880 1.62896e-17
4521.71610 1.64220e-17
4523.18340 1.71318e-17
4524.65070 1.68782e-17
4526.12805 1.62656e-17
4527.59535 1.76445e-17
4529.06265 1.67468e-17
4530.54000 1.62349e-17
4532.00730 1.67649e-17
4533.47460 1.73062e-17
4534.94190 1.76708e-17
4536.41925 1.64908e-17
4537.88655 1.78658e-17
4539.35385 1.77552e-17
4540.82115 1.88697e-17
4542.29850 1.93471e-17
4543.76580 1.86797e-17
4545.23310 1.74759e-17
4546.71045 1.83437e-17
4548.17775 1.90324e-17
4549.64505 1.97583e-17
4551.11235 1.94641e-17
4552.58970 1.89236e-17
4554.05700 1.96751e-17
4555.52430 1.96007e-17
4556.99160 1.95597e-17
4558.46895 2.01048e-17
4559.93625 1.92640e-17
4561.40355 1.87027e-17
4562.88090 1.89940e-17
4564.34820 1.99794e-17
4565.81550 2.06580e-17
4567.28280 2.02615e-17
4568.76015 2.05609e-17
4570.22745 2.02459e-17
4571.69475 1.90821e-17
4573.16205 2.07211e-17
4574.63940 2.07868e-17
4576.10670 1.98462e-17
4577.57400 2.03765e-17
4579.05135 1.95120e-17
4580.51865 1.97006e-17
4581.98595 2.00461e-17
4583.45325 1.96554e-17
4584.93060 2.02646e-17
4586.39790 2.08113e-17
4587.86520 2.09668e-17
4589.33250 2.14033e-17
4590.80985 2.06134e-17
4592.27715 1.99005e-17
4593.74445 2.01539e-17
4595.22180 2.00532e-17
4596.68910 2.06946e-17
4598.15640 2.16653e-17
4599.62370 2.14954e-17
4601.10105 2.05690e-17
4602.56835 2.11422e-17
4604.03565 1.99901e-17
4605.50295 2.01282e-17
4606.98030 2.11761e-17
4608.44760 2.05395e-17
4609.91490 1.98825e-17
4611.39225 1.97162e-17
4612.85955 2.02580e-17
4614.32685 1.89547e-17
4615.79415 1.94625e-17
4617.27150 2.01565e-17
4618.73880 2.05819e-17
4620.20610 2.10759e-17
4621.67340 2.03319e-17
4623.15075 1.95576e-17
4624.61805 1.98847e-17
4626.08535 1.97478e-17
4627.56270 1.96697e-17
4629.03000 1.93940e-17
4630.49730 1.95396e-17
4631.96460 1.89947e-17
4633.44195 1.94169e-17
4634.90925 2.02693e-17
4636.37655 2.03762e-17
4637.84385 1.93934e-17
4639.32120 1.95902e-17
4640.78850 2.01674e-17
4642.25580 1.89070e-17
4643.73315 1.94179e-17
4645.20045 1.96195e-17
4646.66775 1.96999e-17
4648.13505 1.96129e-17
4649.61240 1.86233e-17
4651.07970 1.89314e-17
4652.54700 1.86997e-17
4654.01430 1.86632e-17
4655.49165 1.83613e-17
4656.95895 1.83143e-17
4658.42625 1.89384e-17
4659.90360 1.84032e-17
4661.37090 1.81190e-17
4662.83820 1.78926e-17
4664.30550 1.84406e-17
4665.78285 1.79598e-17
4667.25015 1.77220e-17
4668.71745 1.79212e-17
4670.18475 1.80303e-17
4671.66210 1.74014e-17
4673.12940 1.74177e-17
4674.59670 1.79859e-17
4676.07405 1.75088e-17
4677.54135 1.70905e-17
4679.00865 1.66822e-17
4680.47595 1.65871e-17
4681.95330 1.62829e-17
4683.42060 1.59128e-17
4684.88790 1.66691e-17
4686.35520 1.66633e-17
4687.83255 1.63309e-17
4689.29985 1.65770e-17
4690.76715 1.67349e-17
4692.24450 1.60956e-17
4693.71180 1.62214e-17
4695.17910 1.57923e-17
4696.64640 1.56542e-17
4698.12375 1.50456e-17
4699.59105 1.50040e-17
4701.05835 1.51824e-17
4702.53570 1.46130e-17
4704.00300 1.37470e-17
4705.47030 1.42431e-17
4706.93760 1.39818e-17
4708.41495 1.33235e-17
4709.88225 1.30050e-17
4711.34955 1.27705e-17
4712.81685 1.23558e-17
4714.29420 1.29134e-17
4715.76150 1.21427e-17
4717.22880 1.19860e-17
4718.70615 1.13578e-17
4720.17345 1.20873e-17
4721.64075 1.18136e-17
4723.10805 1.12926e-17
4724.58540 1.07258e-17
4726.05270 1.05607e-17
4727.52000 1.03105e-17
4728.98730 1.06250e-17
4730.46465 1.08578e-17
4731.93195 1.11505e-17
4733.39925 1.02922e-17
4734.86655 9.78558e-18
4736.34390 1.05190e-17
4737.81120 1.09966e-17
4739.27850 1.07485e-17
4740.75585 1.15757e-17
4742.22315 1.14137e-17
4743.69045 1.09637e-17
4745.15775 1.08537e-17
4746.63510 1.15508e-17
