# wavelength flux
4069.48190 1.18026e-17
4071.33020 1.36608e-17
4073.16840 -3.23430e-18
4075.00660 4.40480e-18
4076.85490 1.38777e-17
4078.69310 5.38997e-18
4080.53130 5.95079e-18
4082.36950 1.09304e-17
4084.21780 2.09706e-17
4086.05600 1.06624e-17
4087.89420 7.24016e-19
4089.74250 1.55887e-18
4091.58070 1.11250e-17
4093.41890 7.34898e-18
4095.25710 6.03355e-18
4097.10540 1.13763e-18
4098.94360 1.08799e-17
4100.78180 1.00587e-17
4102.62000 -1.48709e-18
4104.46830 -9.55630e-18
4106.30650 -2.53416e-18
4108.14470 1.12033e-17
4109.99300 -4.34582e-18
4111.83120 2.02294e-18
4113.66940 -3.52668e-18
4115.50760 8.90264e-18
4117.35590 8.36021e-18
4119.19410 3.96715e-18
4121.03230 -1.76085e-18
4122.87050 2.46933e-18
4124.71880 7.32679e-18
4126.55700 6.10915e-18
4128.39520 -1.61348e-19
4130.24350 5.67370e-18
4132.08170 6.43733e-18
4133.91990 2.20130e-18
4135.75810 -1.08468e-17
4137.60640 5.56629e-19
4139.44460 9.34181e-18
4141.28280 7.82001e-18
4143.12100 1.02681e-17
4144.96930 1.02692e-17
4146.80750 7.39613e-18
4148.64570 1.17246e-17
4150.49400 8.03256e-18
4152.33220 1.16601e-17
4154.17040 4.29333e-18
4156.00860 1.33841e-17
4157.85690 1.35678e-17
4159.69510 1.11929e-17
4161.53330 1.11998e-17
4163.38160 6.57918e-18
4165.21980 1.94764e-18
4167.05800 1.03960e-17
4168.89620 8.06554e-18
4170.74450 4.10482e-18
4172.58270 3.28878e-18
4174.42090 1.10658e-17
4176.25910 1.74383e-17
4178.10740 1.26791e-17
4179.94560 6.25666e-18
4181.78380 7.11225e-18
4183.63210 4.63949e-18
4185.47030 3.44090e-18
4187.30850 -1.14409e-18
4189.14670 5.19812e-18
4190.99500 1.67212e-17
4192.83320 4.72398e-18
4194.67140 7.92217e-18
4196.50960 3.98306e-18
4198.35790 -1.48917e-18
4200.19610 7.86871e-18
4202.03430 1.13699e-17
4203.88260 1.14838e-17
4205.72080 9.71018e-18
4207.55900 5.32999e-18
4209.39720 1.14228e-17
4211.24550 7.99492e-18
4213.08370 7.78254e-18
4214.92190 1.42451e-17
4216.77020 7.68081e-18
4218.60840 4.85716e-18
4220.44660 9.33667e-18
4222.28480 9.07715e-18
4224.13310 3.49208e-18
4225.97130 6.05163e-18
4227.80950 5.45125e-18
4229.64770 1.88868e-18
4231.49600 5.05225e-18
4233.33420 1.06930e-17
4235.17240 1.30958e-17
4237.02070 1.18089e-17
4238.85890 1.04349e-17
4240.69710 1.54444e-18
4242.53530 -4.97974e-18
4244.38360 2.26091e-18
4246.22180 1.14585e-17
4248.06000 1.18321e-17
4249.90830 6.36146e-18
4251.74650 7.22378e-18
4253.58470 1.01853e-17
4255.42290 6.39513e-18
4257.27120 7.22222e-18
4259.10940 -5.54289e-19
4260.94760 4.37415e-18
4262.78580 3.38923e-18
4264.63410 4.64115e-18
4266.47230 5.71479e-18
4268.31050 3.93121e-18
4270.15880 5.99268e-18
4271.99700 2.40517e-18
4273.83520 1.20477e-17
4275.67340 1.14602e-17
4277.52170 8.43543e-18
4279.35990 5.31187e-18
4281.19810 9.86553e-18
4283.03630 1.04342e-17
4284.88460 7.12326e-18
4286.72280 8.46918e-18
4288.56100 1.01119e-17
4290.40930 2.62422e-18
4292.24750 5.80028e-18
4294.08570 9.59458e-18
4295.92390 9.56705e-18
4297.77220 1.03377e-17
4299.61040 1.03164e-17
4301.44860 5.10373e-18
4303.28680 1.18529e-17
4305.13510 1.02147e-17
4306.97330 9.62272e-18
4308.81150 1.04842e-17
4310.65980 8.33819e-18
4312.49800 1.11701e-17
4314.33620 1.16206e-17
4316.17440 4.71840e-18
4318.02270 7.26447e-18
4319.86090 6.06154e-18
4321.69910 1.27735e-17
4323.54740 7.70022e-18
4325.38560 8.50567e-18
4327.22380 8.31362e-18
4329.06200 4.09332e-18
4330.91030 5.74849e-18
4332.74850 1.13274e-17
4334.58670 6.46937e-18
4336.42490 6.56125e-18
4338.27320 6.48871e-18
4340.11140 7.16850e-18
4341.94960 4.10330e-18
4343.79790 7.69567e-18
4345.63610 7.96716e-18
4347.47430 7.47728e-18
4349.31250 7.62831e-18
4351.16080 8.44139e-18
4352.99900 5.95829e-18
4354.83720 5.65793e-18
4356.67540 7.88723e-18
4358.52370 8.69559e-18
4360.36190 5.22905e-18
4362.20010 9.13758e-18
4364.04840 7.82801e-18
4365.88660 9.26411e-18
4367.72480 5.96058e-18
4369.56300 7.78370e-18
4371.41130 9.79349e-18
4373.24950 9.71799e-18
4375.08770 8.74015e-18
4376.93600 8.71247e-18
4378.77420 8.68480e-18
4380.61240 8.65714e-18
4382.45060 8.62948e-18
4384.29890 8.60183e-18
4386.13710 8.57419e-18
4387.97530 8.54655e-18
4389.81350 8.51892e-18
4391.66180 8.49130e-18
4393.50000 8.46368e-18
4395.33820 8.43607e-18
4397.18650 8.40847e-18
4399.02470 8.38087e-18
4400.86290 8.35328e-18
4402.70110 8.32570e-18
4404.54940 8.29812e-18
4406.38760 8.27055e-18
4408.22580 8.24299e-18
4410.06400 8.21543e-18
4411.91230 8.18788e-18
4413.75050 8.16034e-18
4415.58870 8.13280e-18
4417.43700 8.10527e-18
4419.27520 8.07775e-18
4421.11340 8.05023e-18
4422.95160 8.02272e-18
4424.79990 7.99522e-18
4426.63810 7.96772e-18
4428.47630 7.94023e-18
4430.31450 7.91276e-18
4432.16280 7.88528e-18
4434.00100 7.85781e-18
4435.83920 7.83035e-18
4437.68750 7.80289e-18
4439.52570 9.00842e-18
4441.36390 1.04153e-17
4443.20210 8.25369e-18
4445.05040 1.09758e-17
4446.88860 1.15857e-17
4448.72680 1.02164e-17
4450.57510 9.09435e-18
4452.41330 1.16153e-17
4454.25150 1.05677e-17
4456.08970 9.31074e-18
4457.93800 8.08837e-18
4459.77620 9.35260e-18
4461.61440 9.93061e-18
4463.45260 1.11551e-17
4465.30090 1.00558e-17
4467.13910 9.26122e-18
4468.97730 1.02809e-17
4470.82560 1.27718e-17
4472.66380 1.13539e-17
4474.50200 1.09197e-17
4476.34020 1.06796e-17
4478.18850 1.21673e-17
4480.02670 1.30998e-17
4481.86490 1.22872e-17
4483.70310 1.12394e-17
4485.55140 1.24738e-17
4487.38960 9.07711e-18
4489.22780 9.00659e-18
4491.07610 1.29779e-17
4492.91430 1.16529e-17
4494.75250 1.20142e-17
4496.59070 8.21383e-18
4498.43900 7.02131e-18
4500.27720 9.52488e-18
4502.11540 1.16213e-17
4503.96370 8.72882e-18
4505.80190 9.77350e-18
4507.64010 1.07770e-17
4509.47830 1.19731e-17
4511.32660 1.23101e-17
4513.16480 9.04010e-18
4515.00300 9.77742e-18
4516.84120 1.02666e-17
4518.68950 1.11152e-17
4520.52770 1.16039e-17
4522.36590 1.10702e-17
4524.21420 1.16594e-17
4526.05240 1.26768e-17
4527.89060 1.17611e-17
4529.72880 1.18449e-17
4531.57710 1.02373e-17
4533.41530 9.89048e-18
4535.25350 1.21230e-17
4537.09170 1.27212e-17
4538.94000 9.55849e-18
4540.77820 8.34912e-18
4542.61640 8.48930e-18
4544.46470 9.80581e-18
4546.30290 1.21731e-17
4548.14110 1.11270e-17
4549.97930 1.19784e-17
4551.82760 9.15224e-18
4553.66580 1.25725e-17
4555.50400 1.11025e-17
4557.35230 1.09355e-17
4559.19050 9.26547e-18
4561.02870 1.28550e-17
4562.86690 1.00231e-17
4564.71520 1.14239e-17
4566.55340 1.03958e-17
4568.39160 9.45413e-18
4570.22980 1.13574e-17
4572.07810 1.12526e-17
4573.91630 1.07999e-17
4575.75450 1.07398e-17
4577.60280 1.19311e-17
4579.44100 1.09713e-17
4581.27920 1.32043e-17
4583.11740 1.28044e-17
4584.96570 1.12110e-17
4586.80390 1.08753e-17
4588.64210 1.09295e-17
4590.48030 1.10634e-17
4592.32860 1.18420e-17
4594.16680 1.14611e-17
4596.00500 1.22085e-17
4597.85330 1.22850e-17
4599.69150 1.06126e-17
4601.52970 1.20858e-17
4603.36790 1.15197e-17
4605.21620 1.12445e-17
4607.05440 9.59381e-18
4608.89260 1.02607e-17
4610.73080 1.05923e-17
4612.57910 1.12936e-17
4614.41730 1.10140e-17
4616.25550 1.14501e-17
4618.10380 1.33617e-17
4619.94200 1.06995e-17
4621.78020 1.04672e-17
4623.61840 9.43979e-18
4625.46670 9.75541e-18
4627.30490 9.57747e-18
4629.14310 9.30905e-18
4630.99140 9.15579e-18
4632.82960 8.51942e-18
4634.66780 1.10646e-17
4636.50600 1.13727e-17
4638.35430 1.10440e-17
4640.19250 9.16796e-18
4642.03070 1.12115e-17
4643.86890 1.07764e-17
4645.71720 9.36144e-18
4647.55540 9.41996e-18
4649.39360 9.30725e-18
4651.24190 9.42910e-18
4653.08010 1.05977e-17
4654.91830 1.10572e-17
4656.75650 1.02328e-17
4658.60480 1.03143e-17
4660.44300 1.07591e-17
4662.28120 1.16678e-17
4664.12950 1.19864e-17
4665.96770 1.10384e-17
4667.80590 1.00517e-17
4669.64410 9.65969e-18
4671.49240 1.06343e-17
4673.33060 1.09489e-17
4675.16880 9.76344e-18
4677.00700 1.02884e-17
4678.85530 1.02298e-17
4680.69350 1.06840e-17
4682.53170 1.16605e-17
4684.38000 1.10670e-17
4686.21820 1.14938e-17
4688.05640 1.08688e-17
4689.89460 1.04107e-17
4691.74290 9.38404e-18
4693.58110 9.53487e-18
4695.41930 1.03839e-17
4697.25750 1.01623e-17
4699.10580 9.22764e-18
4700.94400 9.40948e-18
4702.78220 1.10986e-17
4704.63050 1.03055e-17
4706.46870 9.76008e-18
4708.30690 9.10863e-18
4710.14510 1.04397e-17
4711.99340 1.01358e-17
4713.83160 1.06472e-17
4715.66980 9.05248e-18
4717.50800 1.00272e-17
4719.35630 9.23660e-18
4721.19450 1.00296e-17
4723.03270 1.12142e-17
4724.88100 1.04249e-17
4726.71920 1.02423e-17
4728.55740 1.06859e-17
4730.39560 9.61305e-18
4732.24390 1.10886e-17
4734.08210 1.07105e-17
4735.92030 9.88614e-18
4737.75850 1.08348e-17
4739.60680 1.11585e-17
4741.44500 1.00960e-17
4743.28320 9.55753e-18
4745.13150 9.92653e-18
4746.96970 1.04990e-17
4748.80790 9.05316e-18
4750.64610 1.04994e-17
4752.49440 1.20906e-17
4754.33260 1.09981e-17
4756.17080 1.15102e-17
4758.01910 1.09423e-17
4759.85730 9.62106e-18
4761.69550 1.06582e-17
4763.53370 1.01552e-17
4765.38200 9.63379e-18
4767.22020 9.87615e-18
4769.05840 1.00785e-17
4770.89660 9.98376e-18
4772.74490 1.04374e-17
4774.58310 9.67430e-18
4776.42130 9.20459e-18
4778.26960 1.04431e-17
4780.10780 9.90182e-18
4781.94600 8.51078e-18
4783.78420 9.15643e-18
4785.63250 9.52686e-18
4787.47070 9.79380e-18
4789.30890 9.45597e-18
4791.15720 1.02180e-17
4792.99540 9.87622e-18
4794.83360 8.92198e-18
4796.67180 9.22976e-18
4798.52010 9.06133e-18
4800.35830 8.87814e-18
4802.19650 9.75989e-18
4804.03470 9.44998e-18
4805.88300 8.85552e-18
4807.72120 8.92484e-18
4809.55940 1.00081e-17
4811.40770 1.00966e-17
4813.24590 9.85650e-18
4815.08410 9.65942e-18
4816.92230 9.14790e-18
4818.77060 1.00326e-17
4820.60880 9.55937e-18
4822.44700 9.50894e-18
4824.28520 1.06629e-17
4826.13350 1.00254e-17
4827.97170 1.04177e-17
4829.80990 1.01434e-17
4831.65820 1.05362e-17
4833.49640 1.06879e-17
4835.33460 1.11053e-17
4837.17280 1.08260e-17
4839.02110 1.02722e-17
4840.85930 1.04242e-17
4842.69750 1.01748e-17
4844.53570 1.03866e-17
4846.38400 1.04237e-17
4848.22220 1.01438e-17
4850.06040 9.82094e-18
4851.90870 9.81286e-18
4853.74690 1.12024e-17
4855.58510 1.13630e-17
4857.42330 1.02433e-17
4859.27160 1.08172e-17
4861.10980 1.10772e-17
4862.94800 1.16862e-17
4864.79630 1.07417e-17
4866.63450 1.05638e-17
4868.47270 1.02904e-17
4870.31090 1.03120e-17
4872.15920 1.09682e-17
4873.99740 1.11264e-17
4875.83560 1.09535e-17
4877.67380 1.06334e-17
4879.52210 9.62791e-18
4881.36030 1.11802e-17
4883.19850 1.06151e-17
4885.04680 1.09072e-17
4886.88500 1.09832e-17
4888.72320 1.03473e-17
4890.56140 1.09464e-17
4892.40970 1.09538e-17
4894.24790 1.09612e-17
4896.08610 1.09686e-17
4897.93440 1.09759e-17
4899.77260 1.09833e-17
4901.61080 1.09907e-17
4903.44900 1.09980e-17
4905.29730 1.10054e-17
4907.13550 1.10128e-17
4908.97370 1.10201e-17
4910.81190 1.10275e-17
4912.66020 1.10348e-17
4914.49840 1.10422e-17
4916.33660 1.10495e-17
4918.17480 1.10569e-17
4920.02310 1.10642e-17
4921.86130 1.10715e-17
4923.69950 1.10789e-17
4925.54780 1.10862e-17
4927.38600 1.10936e-17
4929.22420 1.11009e-17
4931.06240 1.08457e-17
4932.91070 1.07577e-17
4934.74890 1.05383e-17
4936.58710 1.05881e-17
4938.43540 1.02401e-17
4940.27360 9.74709e-18
4942.11180 1.04211e-17
4943.95000 1.06566e-17
4945.79830 1.06609e-17
4947.63650 1.06352e-17
4949.47470 1.12672e-17
4951.31290 1.09472e-17
4953.16120 1.11198e-17
4954.99940 1.07897e-17
4956.83760 1.08151e-17
4958.68590 1.10779e-17
4960.52410 1.10107e-17
4962.36230 1.17084e-17
4964.20050 1.13467e-17
4966.04880 1.04238e-17
4967.88700 1.11446e-17
4969.72520 1.09088e-17
4971.56340 1.12194e-17
4973.41170 1.12045e-17
4975.24990 1.05027e-17
4977.08810 1.04422e-17
4978.93640 1.14745e-17
4980.77460 1.15901e-17
4982.61280 1.09702e-17
4984.45100 1.12867e-17
4986.29930 1.15281e-17
4988.13750 1.17929e-17
4989.97570 1.14373e-17
4991.82400 1.15183e-17
4993.66220 1.15992e-17
4995.50040 1.16800e-17
4997.33860 1.17609e-17
4999.18690 1.18417e-17
5001.02510 1.19225e-17
5002.86330 1.20033e-17
5004.70150 1.20840e-17
5006.54980 1.21648e-17
5008.38800 1.22455e-17
5010.22620 1.23261e-17
5012.07450 1.24068e-17
5013.91270 1.24874e-17
5015.75090 1.25680e-17
5017.58910 1.26486e-17
5019.43740 1.27291e-17
5021.27560 1.28097e-17
5023.11380 1.28901e-17
5024.96210 1.29706e-17
5026.80030 1.30511e-17
5028.63850 1.23092e-17
5030.47670 1.27174e-17
5032.32500 1.23046e-17
5034.16320 1.25980e-17
5036.00140 1.29711e-17
5037.83960 1.21570e-17
5039.68790 1.22762e-17
5041.52610 1.23955e-17
5043.36430 1.25146e-17
5045.20250 1.26338e-17
5047.05080 1.27529e-17
5048.88900 1.28720e-17
5050.72720 1.29910e-17
5052.57550 1.31100e-17
5054.41370 1.32290e-17
5056.25190 1.33479e-17
5058.09010 1.34668e-17
5059.93840 1.35857e-17
5061.77660 1.37045e-17
5063.61480 1.38233e-17
5065.46310 1.39421e-17
5067.30130 1.40607e-17
5069.13950 1.41795e-17
5070.97770 1.42981e-17
5072.82600 1.44167e-17
5074.66420 1.45353e-17
5076.50240 1.46538e-17
5078.34060 1.47917e-17
5080.18890 1.40774e-17
5082.02710 1.39333e-17
5083.86530 1.41092e-17
5085.71360 1.42752e-17
5087.55180 1.40747e-17
5089.39000 1.39759e-17
5091.22820 1.40132e-17
5093.07650 1.35041e-17
5094.91470 1.42765e-17
5096.75290 1.44211e-17
5098.60120 1.47490e-17
5100.43940 1.44210e-17
5102.27760 1.49679e-17
5104.11580 1.48726e-17
5105.96410 1.52641e-17
5107.80230 1.53158e-17
5109.64050 1.53405e-17
5111.47870 1.54700e-17
5113.32700 1.53898e-17
5115.16520 1.51566e-17
5117.00340 1.49974e-17
5118.85170 1.50245e-17
5120.68990 1.57139e-17
5122.52810 1.57315e-17
5124.36630 1.58040e-17
5126.21460 1.59628e-17
5128.05280 1.57562e-17
5129.89100 1.57752e-17
5131.72920 1.60182e-17
5133.57750 1.58188e-17
5135.41570 1.57127e-17
5137.25390 1.54209e-17
5139.10220 1.57566e-17
5140.94040 1.64567e-17
5142.77860 1.62613e-17
5144.61680 1.61711e-17
5146.46510 1.60680e-17
5148.30330 1.61664e-17
5150.14150 1.65095e-17
5151.98980 1.67287e-17
5153.82800 1.69074e-17
5155.66620 1.71476e-17
5157.50440 1.63164e-17
5159.35270 1.61331e-17
5161.19090 1.65516e-17
5163.02910 1.65403e-17
5164.86730 1.65095e-17
5166.71560 1.69984e-17
5168.55380 1.73935e-17
5170.39200 1.65443e-17
5172.24030 1.66412e-17
5174.07850 1.75765e-17
5175.91670 1.72310e-17
5177.75490 1.70128e-17
5179.60320 1.77265e-17
5181.44140 1.72729e-17
5183.27960 1.73512e-17
5185.11780 1.81617e-17
5186.96610 1.77460e-17
5188.80430 1.74709e-17
5190.64250 1.79722e-17
5192.49080 1.83752e-17
5194.32900 1.81173e-17
5196.16720 1.79304e-17
5198.00540 1.83743e-17
5199.85370 1.80183e-17
5201.69190 1.82461e-17
5203.53010 1.84540e-17
5205.36830 1.80384e-17
5207.21660 1.82092e-17
5209.05480 1.90816e-17
5210.89300 1.94648e-17
5212.74130 1.92753e-17
5214.57950 1.98506e-17
5216.41770 1.97351e-17
5218.25590 1.94749e-17
5220.10420 1.94790e-17
5221.94240 1.98409e-17
5223.78060 1.98783e-17
5225.62890 2.02287e-17
5227.46710 2.00107e-17
5229.30530 2.01519e-17
5231.14350 2.05681e-17
5232.99180 2.08740e-17
5234.83000 2.03850e-17
5236.66820 2.08393e-17
5238.50640 2.06364e-17
5240.35470 2.08174e-17
5242.19290 2.10520e-17
5244.03110 2.10733e-17
5245.87940 2.14011e-17
5247.71760 2.12774e-17
5249.55580 2.11892e-17
5251.39400 2.11389e-17
5253.24230 2.13813e-17
5255.08050 2.14596e-17
5256.91870 2.10191e-17
5258.75690 2.03634e-17
5260.60520 2.10581e-17
5262.44340 2.13497e-17
5264.28160 2.16214e-17
5266.12990 2.06581e-17
5267.96810 2.09542e-17
5269.80630 2.15650e-17
5271.64450 2.16143e-17
5273.49280 2.16367e-17
5275.33100 2.16015e-17
5277.16920 2.15808e-17
5279.01750 2.14364e-17
5280.85570 2.14506e-17
5282.69390 2.18209e-17
5284.53210 2.11728e-17
5286.38040 2.20279e-17
5288.21860 2.16858e-17
5290.05680 2.14315e-17
5291.89500 2.19802e-17
5293.74330 2.23129e-17
5295.58150 2.17697e-17
5297.41970 2.17950e-17
5299.26800 2.22191e-17
5301.10620 2.14946e-17
5302.94440 2.15820e-17
5304.78260 2.16613e-17
5306.63090 2.15201e-17
5308.46910 2.21030e-17
5310.30730 2.18061e-17
5312.14550 2.20652e-17
5313.99380 2.21308e-17
5315.83200 2.13550e-17
5317.67020 2.18170e-17
5319.51850 2.23554e-17
5321.35670 2.25482e-17
5323.19490 2.23504e-17
5325.03310 2.22167e-17
5326.88140 2.21574e-17
5328.71960 2.20290e-17
5330.55780 2.19642e-17
5332.39600 2.20264e-17
5334.24430 2.20963e-17
5336.08250 2.20865e-17
5337.92070 2.20090e-17
5339.76900 2.24101e-17
5341.60720 2.20587e-17
5343.44540 2.18153e-17
5345.28360 2.20592e-17
5347.13190 2.25938e-17
5348.97010 2.18046e-17
5350.80830 2.18460e-17
5352.65660 2.20298e-17
5354.49480 2.20262e-17
5356.33300 2.27523e-17
5358.17120 2.21121e-17
5360.01950 2.21093e-17
5361.85770 2.25126e-17
5363.69590 2.20526e-17
5365.53410 2.18141e-17
5367.38240 2.24258e-17
5369.22060 2.25267e-17
5371.05880 2.18922e-17
5372.90710 2.10874e-17
5374.74530 2.13704e-17
5376.58350 2.18816e-17
5378.42170 2.12856e-17
5380.27000 2.16075e-17
5382.10820 2.19560e-17
5383.94640 2.17163e-17
5385.78460 2.14637e-17
5387.63290 2.17746e-17
5389.47110 2.17009e-17
5391.30930 2.11068e-17
5393.15760 2.10176e-17
5394.99580 2.11852e-17
5396.83400 2.15449e-17
5398.67220 2.14620e-17
5400.52050 2.15718e-17
5402.35870 2.18238e-17
5404.19690 2.16631e-17
5406.04520 2.09995e-17
5407.88340 2.08758e-17
5409.72160 2.11031e-17
5411.55980 2.09948e-17
5413.40810 2.07024e-17
5415.24630 2.00998e-17
5417.08450 1.96877e-17
5418.92270 1.97497e-17
5420.77100 2.00467e-17
5422.60920 2.02076e-17
5424.44740 2.04242e-17
5426.29570 2.04489e-17
5428.13390 2.02104e-17
5429.97210 2.01550e-17
5431.81030 2.02627e-17
5433.65860 2.10065e-17
5435.49680 2.01698e-17
5437.33500 2.04291e-17
5439.18330 2.03729e-17
5441.02150 2.03595e-17
5442.85970 1.96607e-17
5444.69790 1.97307e-17
5446.54620 1.94129e-17
5448.38440 1.98674e-17
5450.22260 2.02157e-17
5452.06080 1.99821e-17
5453.90910 2.04784e-17
5455.74730 2.02151e-17
5457.58550 1.96139e-17
5459.43380 1.95085e-17
5461.27200 1.98079e-17
5463.11020 1.95517e-17
5464.94840 2.01500e-17
5466.79670 1.93910e-17
5468.63490 1.92560e-17
5470.47310 1.95309e-17
5472.31130 1.93814e-17
5474.15960 1.96671e-17
5475.99780 1.96440e-17
5477.83600 1.86925e-17
5479.68430 1.92067e-17
5481.52250 1.96131e-17
5483.36070 1.89018e-17
5485.19890 1.84670e-17
5487.04720 1.89787e-17
5488.88540 1.92840e-17
5490.72360 1.94650e-17
5492.56180 1.96556e-17
5494.41010 1.92489e-17
5496.24830 1.92256e-17
5498.08650 1.93903e-17
5499.93480 1.89639e-17
5501.77300 1.87775e-17
5503.61120 1.87457e-17
5505.44940 1.90404e-17
5507.29770 1.92982e-17
5509.13590 1.85729e-17
5510.97410 1.83339e-17
5512.81230 1.87451e-17
5514.66060 1.92445e-17
5516.49880 1.85100e-17
5518.33700 1.87695e-17
5520.18530 1.87202e-17
5522.02350 1.85668e-17
5523.86170 1.85936e-17
5525.69990 1.94120e-17
5527.54820 1.88637e-17
5529.38640 1.90026e-17
5531.22460 1.86645e-17
5533.07290 1.84733e-17
5534.91110 1.94245e-17
5536.74930 1.86438e-17
5538.58750 1.83475e-17
5540.43580 1.87574e-17
5542.27400 1.82897e-17
5544.11220 1.84967e-17
5545.95040 1.81674e-17
5547.79870 1.90633e-17
5549.63690 1.84039e-17
5551.47510 1.82726e-17
5553.32340 1.81805e-17
5555.16160 1.82996e-17
5556.99980 1.85511e-17
5558.83800 1.86053e-17
5560.68630 1.82504e-17
5562.52450 1.83778e-17
5564.36270 1.86013e-17
5566.21100 1.85168e-17
5568.04920 1.84155e-17
5569.88740 1.82919e-17
5571.72560 1.82688e-17
5573.57390 1.82881e-17
5575.41210 1.82999e-17
5577.25030 1.87313e-17
5579.08850 1.87611e-17
5580.93680 1.79541e-17
5582.77500 1.82727e-17
5584.61320 1.86906e-17
5586.46150 1.82987e-17
5588.29970 1.80064e-17
5590.13790 1.82150e-17
5591.97610 1.79870e-17
5593.82440 1.84631e-17
5595.66260 1.85064e-17
5597.50080 1.81724e-17
5599.33900 1.80642e-17
5601.18730 1.81316e-17
5603.02550 1.84452e-17
5604.86370 1.81808e-17
5606.71200 1.79031e-17
5608.55020 1.81520e-17
5610.38840 1.85010e-17
5612.22660 1.88349e-17
5614.07490 1.88144e-17
5615.91310 1.88375e-17
5617.75130 1.89395e-17
5619.58950 1.89435e-17
5621.43780 1.85341e-17
5623.27600 1.82761e-17
5625.11420 1.85649e-17
5626.96250 1.85139e-17
5628.80070 1.86062e-17
5630.63890 1.87931e-17
5632.47710 1.85418e-17
5634.32540 1.85820e-17
5636.16360 1.83010e-17
5638.00180 1.76792e-17
5639.85010 1.81532e-17
5641.68830 1.86183e-17
5643.52650 1.85388e-17
5645.36470 1.83638e-17
5647.21300 1.78905e-17
5649.05120 1.82216e-17
5650.88940 1.85588e-17
5652.72760 1.85183e-17
5654.57590 1.82965e-17
5656.41410 1.82952e-17
5658.25230 1.81789e-17
5660.10060 1.82175e-17
5661.93880 1.83471e-17
5663.77700 1.77042e-17
5665.61520 1.80386e-17
