# wavelength flux
3300.00266 3.57550e-18
3301.00463 2.49349e-18
3301.99649 3.58306e-19
3302.99847 1.03336e-18
3304.00045 2.93095e-18
3305.00243 2.80138e-18
3306.00441 2.00540e-18
3306.99627 2.06259e-18
3307.99824 1.39368e-18
3309.00022 1.75933e-18
3310.00220 3.03234e-18
3311.00418 3.88671e-18
3311.99604 1.64378e-18
3312.99802 2.96785e-18
3314.00000 2.57243e-18
3315.00198 1.65805e-18
3316.00396 2.05823e-18
3316.99581 1.13365e-18
3317.99779 1.67042e-18
3318.99977 1.60780e-18
3320.00175 1.99644e-18
3321.00373 2.37151e-18
3321.99559 1.47397e-18
3322.99757 2.98478e-21
3323.99955 2.81767e-18
3325.00153 2.93661e-18
3326.00350 3.69931e-18
3326.99536 1.42015e-18
3327.99734 2.11746e-18
3328.99932 9.11316e-19
3330.00130 6.27175e-19
3331.00328 2.98075e-18
3331.99514 1.07100e-18
3332.99712 2.21216e-18
3333.99909 1.58584e-18
3335.00107 1.16670e-18
3336.00305 2.66998e-18
3336.99491 1.57836e-18
3337.99689 3.41636e-18
3338.99887 1.70652e-18
3340.00085 2.08801e-18
3341.00283 1.50025e-18
3342.00481 1.20125e-18
3342.99666 9.10689e-19
3343.99864 7.61122e-19
3345.00062 1.37323e-18
3346.00260 1.85870e-18
3347.00458 1.90716e-18
3347.99644 2.82954e-18
3348.99842 1.66754e-18
3350.00040 2.14775e-18
3351.00237 2.13603e-18
3352.00435 2.01133e-18
3352.99621 2.11565e-18
3353.99819 1.21318e-18
3355.00017 1.25976e-18
3356.00215 1.93406e-18
3357.00413 1.08790e-18
3357.99599 7.52381e-19
3358.99796 1.36201e-18
3359.99994 1.56066e-18
3361.00192 1.23485e-18
3362.00390 2.85655e-18
3362.99576 1.21981e-18
3363.99774 1.56501e-18
3364.99972 2.10971e-18
3366.00170 1.86915e-18
3367.00367 3.51908e-19
3367.99553 1.23075e-18
3368.99751 2.73764e-18
3369.99949 1.46172e-18
3371.00147 2.03025e-18
3372.00345 8.69474e-19
3372.99531 2.04279e-18
3373.99729 2.57948e-18
3374.99926 1.17530e-18
3376.00124 1.40202e-18
3377.00322 8.34205e-19
3377.99508 2.27342e-18
3378.99706 1.38497e-18
3379.99904 1.56859e-18
3381.00102 1.15596e-18
3382.00300 3.08061e-18
3383.00498 2.28253e-18
3383.99683 3.17820e-18
3384.99881 1.60913e-18
3386.00079 1.53022e-18
3387.00277 2.40477e-18
3388.00475 2.50849e-18
3388.99661 2.06331e-18
3389.99859 1.30977e-18
3391.00057 2.01511e-18
3392.00254 1.03204e-18
3393.00452 2.79869e-18
3393.99638 2.04057e-18
3394.99836 2.29545e-18
3396.00034 2.11709e-18
3397.00232 1.37519e-18
3398.00430 1.73983e-18
3398.99616 1.25800e-18
3399.99813 1.77478e-18
3401.00011 1.75111e-18
3402.00209 1.74384e-18
3403.00407 1.33418e-18
3403.99593 2.86994e-18
3404.99791 2.14730e-18
3405.99989 2.36965e-18
3407.00187 3.06785e-18
3408.00385 1.48284e-18
3408.99570 1.98431e-18
3409.99768 2.13651e-18
3410.99966 2.41511e-18
3412.00164 7.67771e-19
3413.00362 1.69308e-18
3413.99548 3.39381e-18
3414.99746 2.21341e-18
3415.99944 2.09985e-18
3417.00142 1.30021e-18
3418.00339 2.39668e-18
3418.99525 1.72241e-18
3419.99723 1.36207e-18
3420.99921 1.36033e-18
3422.00119 1.63923e-18
3423.00317 2.06453e-18
3423.99503 1.63918e-18
3424.99701 2.94050e-18
3425.99898 3.38860e-18
3427.00096 2.62826e-18
3428.00294 2.41171e-18
3429.00492 1.95817e-18
3429.99678 1.77447e-18
3430.99876 1.73161e-18
3432.00074 1.92033e-18
3433.00272 1.56462e-18
3434.00469 1.53704e-18
3434.99655 9.10519e-19
3435.99853 2.31234e-18
3437.00051 1.65902e-18
3438.00249 2.29191e-18
3439.00447 1.94463e-18
3439.99633 8.97868e-19
3440.99831 2.05820e-18
3442.00029 1.93744e-18
3443.00226 1.92075e-18
3444.00424 2.00264e-18
3444.99610 2.40995e-18
3445.99808 6.47755e-19
3447.00006 2.13156e-18
3448.00204 1.56358e-18
3449.00402 1.25139e-18
3449.99588 2.02398e-18
3450.99785 1.57629e-18
3451.99983 3.22635e-18
3453.00181 2.82748e-18
3454.00379 1.47913e-18
3454.99565 1.78106e-18
3455.99763 1.68284e-18
3456.99961 1.14025e-18
3458.00159 1.85862e-18
3459.00356 2.89507e-18
3459.99542 2.31981e-18
3460.99740 3.42010e-18
3461.99938 2.43316e-18
3463.00136 2.10872e-18
3464.00334 1.80814e-18
3464.99520 1.67621e-18
3465.99718 2.36441e-18
3466.99915 1.71268e-18
3468.00113 2.09838e-18
3469.00311 3.18916e-18
3470.00509 2.26314e-18
3470.99695 1.98134e-18
3471.99893 1.79513e-18
3473.00091 2.21215e-18
3474.00289 1.63625e-18
3475.00487 1.64911e-18
3475.99672 2.57230e-18
3476.99870 2.28624e-18
3478.00068 9.98248e-19
3479.00266 1.93762e-18
3480.00464 2.32954e-18
3480.99650 2.04286e-18
3481.99848 2.68887e-18
3483.00046 2.41943e-18
3484.00243 3.46210e-18
3485.00441 2.73409e-18
3485.99627 3.03646e-18
3486.99825 2.46556e-18
3488.00023 2.78614e-18
3489.00221 2.03961e-18
3490.00419 2.62692e-18
3490.99605 2.73728e-18
3491.99802 2.07402e-18
3493.00000 2.05147e-18
3494.00198 2.59489e-18
3495.00396 1.89997e-18
3495.99582 1.62211e-18
3496.99780 2.22040e-18
3497.99978 1.96904e-18
3499.00176 2.71307e-18
3500.00374 2.83965e-18
3500.99559 3.03989e-18
3501.99757 2.87763e-18
3502.99955 2.41497e-18
3504.00153 3.36576e-18
3505.00351 3.53872e-18
3505.99537 2.84538e-18
3506.99735 3.07508e-18
3507.99933 2.56014e-18
3509.00131 2.28522e-18
3510.00328 3.52539e-18
3510.99514 2.73712e-18
3511.99712 2.78686e-18
3512.99910 2.83594e-18
3514.00108 2.54321e-18
3515.00306 2.81851e-18
3516.00504 2.63116e-18
3516.99689 2.55706e-18
3517.99887 1.94139e-18
3519.00085 2.12359e-18
3520.00283 2.60153e-18
3521.00481 2.91065e-18
3521.99667 2.61454e-18
3522.99865 3.01380e-18
3524.00063 2.06646e-18
3525.00261 2.00428e-18
3526.00459 2.75730e-18
3526.99644 2.38154e-18
3527.99842 2.71121e-18
3529.00040 2.60153e-18
3530.00238 2.13289e-18
3531.00436 2.41490e-18
3531.99622 2.38556e-18
3532.99820 2.41570e-18
3534.00018 2.97876e-18
3535.00215 3.14057e-18
3536.00413 2.64867e-18
3536.99599 1.90707e-18
3537.99797 2.20446e-18
3538.99995 2.29867e-18
3540.00193 2.32933e-18
3541.00391 3.20301e-18
3541.99577 3.37830e-18
3542.99774 2.79114e-18
3543.99972 2.65603e-18
3545.00170 3.34790e-18
3546.00368 2.40992e-18
3546.99554 2.31159e-18
3547.99752 3.16900e-18
3548.99950 2.98171e-18
3550.00148 2.99988e-18
3551.00346 3.00248e-18
3551.99531 2.89634e-18
3552.99729 3.42970e-18
3553.99927 3.03691e-18
3555.00125 2.36330e-18
3556.00323 3.10509e-18
3556.99509 3.28462e-18
3557.99707 3.16253e-18
3558.99905 3.08170e-18
3560.00102 2.86454e-18
3561.00300 3.23147e-18
3562.00498 2.94698e-18
3562.99684 3.30121e-18
3563.99882 3.64194e-18
3565.00080 3.35768e-18
3566.00278 3.55207e-18
3567.00476 3.47383e-18
3567.99661 3.17136e-18
3568.99859 3.42115e-18
3570.00057 2.96896e-18
3571.00255 3.01633e-18
3572.00453 2.39898e-18
3572.99639 2.94514e-18
3573.99837 2.77894e-18
3575.00035 2.86354e-18
3576.00232 3.31262e-18
3577.00430 3.82543e-18
3577.99616 3.57445e-18
3578.99814 2.79819e-18
3580.00012 3.18663e-18
3581.00210 3.67720e-18
3582.00408 2.81282e-18
3582.99594 3.36622e-18
3583.99791 3.40270e-18
3584.99989 2.79143e-18
3586.00187 3.28311e-18
3587.00385 3.26295e-18
3587.99571 3.26876e-18
3588.99769 3.09034e-18
3589.99967 3.30185e-18
3591.00165 3.78396e-18
3592.00363 3.80437e-18
3592.99548 4.04478e-18
3593.99746 2.80207e-18
3594.99944 3.46960e-18
3596.00142 3.20686e-18
3597.00340 3.91428e-18
3597.99526 3.24327e-18
3598.99724 3.91906e-18
3599.99922 4.05408e-18
3601.00119 3.04151e-18
3602.00317 2.75274e-18
3603.00515 3.20136e-18
3603.99701 3.72570e-18
3604.99899 3.44880e-18
3606.00097 4.00265e-18
3607.00295 4.22184e-18
3608.00493 3.89756e-18
3608.99678 3.26268e-18
3609.99876 3.93474e-18
3611.00074 4.16783e-18
3612.00272 3.93758e-18
3613.00470 3.63285e-18
3613.99656 3.68702e-18
3614.99854 4.32865e-18
3616.00052 4.20248e-18
3617.00250 4.16633e-18
3618.00448 3.49311e-18
3618.99633 3.88462e-18
3619.99831 3.76431e-18
3621.00029 3.48669e-18
3622.00227 3.19152e-18
3623.00425 3.07591e-18
3623.99611 3.70374e-18
3624.99809 3.99876e-18
3626.00007 3.50571e-18
3627.00204 4.13045e-18
3628.00402 4.33699e-18
3628.99588 4.41483e-18
3629.99786 4.00981e-18
3630.99984 4.06038e-18
3632.00182 4.16292e-18
3633.00380 3.84338e-18
3633.99566 3.99521e-18
3634.99763 3.36068e-18
3635.99961 3.99662e-18
3637.00159 3.87798e-18
3638.00357 4.47299e-18
3638.99543 3.85282e-18
3639.99741 4.12704e-18
3640.99939 3.74038e-18
3642.00137 3.90203e-18
3643.00334 3.54346e-18
3643.99520 3.82935e-18
3644.99718 3.78313e-18
3645.99916 3.92130e-18
3647.00114 4.52393e-18
3648.00312 3.68418e-18
3649.00510 3.93393e-18
3649.99696 4.10356e-18
3650.99894 4.18869e-18
3652.00091 4.42008e-18
3653.00289 4.18694e-18
3654.00487 3.63890e-18
3654.99673 3.70750e-18
3655.99871 4.18335e-18
3657.00069 4.16997e-18
3658.00267 4.13526e-18
3659.00465 4.27116e-18
3659.99650 4.07544e-18
3660.99848 3.82658e-18
3662.00046 3.92786e-18
3663.00244 3.30254e-18
3664.00442 3.24517e-18
3664.99628 3.70876e-18
3665.99826 3.61893e-18
3667.00024 4.24380e-18
3668.00221 4.05612e-18
3669.00419 4.21947e-18
3669.99605 3.80553e-18
3670.99803 3.43686e-18
3672.00001 3.57376e-18
3673.00199 3.84756e-18
3674.00397 3.83808e-18
3674.99583 3.37935e-18
3675.99780 3.35545e-18
3676.99978 4.30847e-18
3678.00176 4.20467e-18
3679.00374 4.20369e-18
3679.99560 4.21826e-18
3680.99758 4.20650e-18
3681.99956 3.64999e-18
3683.00154 3.53529e-18
3684.00352 4.07676e-18
3684.99537 3.70926e-18
3685.99735 3.75744e-18
3686.99933 3.51533e-18
3688.00131 4.00474e-18
3689.00329 3.98082e-18
3689.99515 3.80031e-18
3690.99713 3.48886e-18
3691.99911 3.49958e-18
3693.00108 4.14421e-18
3694.00306 3.80505e-18
3695.00504 4.76005e-18
3695.99690 3.85560e-18
3696.99888 3.84492e-18
3698.00086 4.00707e-18
3699.00284 3.49482e-18
3700.00482 4.08901e-18
3700.99667 3.48175e-18
3701.99865 3.35047e-18
3703.00063 3.76754e-18
3704.00261 4.09531e-18
3705.00459 3.89395e-18
3705.99645 4.29177e-18
3706.99843 3.84096e-18
3708.00041 4.08837e-18
3709.00239 4.17651e-18
3710.00437 4.05404e-18
3710.99622 3.87372e-18
3711.99820 4.08104e-18
3713.00018 3.36767e-18
3714.00216 3.79374e-18
3715.00414 4.01339e-18
3715.99600 4.10925e-18
3716.99798 4.28052e-18
3717.99996 4.21081e-18
3719.00193 3.97286e-18
3720.00391 4.50718e-18
3720.99577 4.10524e-18
3721.99775 4.43160e-18
3722.99973 3.89420e-18
3724.00171 3.76000e-18
3725.00369 3.88575e-18
3725.99554 4.36850e-18
3726.99752 4.36984e-18
3727.99950 4.66060e-18
3729.00148 3.94230e-18
3730.00346 3.94352e-18
3730.99532 4.50994e-18
3731.99730 4.26744e-18
3732.99928 4.31377e-18
3734.00126 4.20718e-18
3735.00324 4.67458e-18
3735.99509 4.05943e-18
3736.99707 4.29458e-18
3737.99905 4.21557e-18
3739.00103 4.00041e-18
3740.00301 4.12072e-18
3741.00499 3.79694e-18
3741.99685 4.82039e-18
3742.99883 4.65743e-18
3744.00080 4.59986e-18
3745.00278 4.34180e-18
3746.00476 4.36878e-18
3746.99662 4.16365e-18
3747.99860 4.03251e-18
3749.00058 4.71378e-18
3750.00256 4.79727e-18
3751.00454 4.68153e-18
3751.99639 4.36780e-18
3752.99837 4.46660e-18
3754.00035 4.46252e-18
3755.00233 4.15104e-18
3756.00431 4.21416e-18
3756.99617 4.72071e-18
3757.99815 4.04243e-18
3759.00013 4.11773e-18
3760.00211 4.79031e-18
3761.00408 5.18321e-18
3761.99594 5.08028e-18
3762.99792 4.69620e-18
3763.99990 4.53870e-18
3765.00188 4.88994e-18
3766.00386 4.58202e-18
3766.99572 4.62524e-18
3767.99770 4.24405e-18
3768.99967 4.05199e-18
3770.00165 4.17440e-18
3771.00363 5.00215e-18
3771.99549 4.80686e-18
3772.99747 4.76300e-18
3773.99945 4.72519e-18
3775.00143 4.60505e-18
3776.00341 4.52285e-18
3776.99526 4.35898e-18
3777.99724 4.50696e-18
3778.99922 4.47501e-18
3780.00120 5.10985e-18
3781.00318 4.38187e-18
3781.99504 4.70127e-18
3782.99702 4.53290e-18
3783.99900 4.78863e-18
3785.00097 4.87331e-18
3786.00295 4.51104e-18
3787.00493 4.59440e-18
3787.99679 4.56908e-18
3788.99877 5.04867e-18
3790.00075 4.72032e-18
3791.00273 4.55972e-18
3792.00471 4.78498e-18
3792.99656 4.36974e-18
3793.99854 4.81713e-18
3795.00052 4.28193e-18
3796.00250 4.74640e-18
3797.00448 4.72537e-18
3797.99634 4.38864e-18
3798.99832 5.27444e-18
3800.00030 4.57260e-18
3801.00228 4.62123e-18
3802.00426 4.63990e-18
3802.99611 4.57588e-18
3803.99809 4.58031e-18
3805.00007 4.96113e-18
3806.00205 5.32014e-18
3807.00403 5.21328e-18
3807.99589 4.52756e-18
3808.99787 5.12747e-18
3809.99984 4.71328e-18
3811.00182 4.57381e-18
3812.00380 5.12789e-18
3812.99566 5.11100e-18
3813.99764 4.87360e-18
3814.99962 5.06743e-18
3816.00160 5.80963e-18
3817.00358 4.86942e-18
3817.99543 4.94091e-18
3818.99741 5.08985e-18
3819.99939 4.89862e-18
3821.00137 4.72533e-18
3822.00335 4.96146e-18
3822.99521 5.37706e-18
3823.99719 5.11059e-18
3824.99917 5.13014e-18
3826.00115 5.06200e-18
3827.00313 5.13857e-18
3828.00510 5.30644e-18
3828.99696 5.08159e-18
3829.99894 5.30254e-18
3831.00092 5.07941e-18
3832.00290 4.98607e-18
3833.00488 5.09931e-18
3833.99674 5.38925e-18
3834.99872 5.20819e-18
3836.00069 5.05695e-18
3837.00267 5.34255e-18
3838.00465 5.69674e-18
3838.99651 5.50885e-18
3839.99849 5.53482e-18
3841.00047 5.37056e-18
3842.00245 5.29242e-18
3843.00443 5.12772e-18
3843.99628 5.32446e-18
3844.99826 5.85913e-18
3846.00024 5.27594e-18
3847.00222 5.82551e-18
3848.00420 5.39502e-18
3848.99606 5.20166e-18
3849.99804 5.51908e-18
3851.00002 5.59183e-18
3852.00199 5.53947e-18
3853.00397 6.18188e-18
3853.99583 5.67545e-18
3854.99781 5.40512e-18
3855.99979 5.44356e-18
3857.00177 5.46404e-18
3858.00375 5.31104e-18
3858.99561 5.32573e-18
3859.99759 5.41667e-18
3860.99956 5.73254e-18
3862.00154 5.82579e-18
3863.00352 5.78043e-18
3863.99538 5.96920e-18
3864.99736 5.95229e-18
3865.99934 5.40885e-18
3867.00132 5.78156e-18
3868.00330 5.79907e-18
3868.99515 5.43154e-18
3869.99713 5.84758e-18
3870.99911 5.99316e-18
3872.00109 6.07863e-18
3873.00307 5.77118e-18
3874.00505 5.99826e-18
3874.99691 5.72087e-18
3875.99889 5.84494e-18
3877.00086 5.89705e-18
3878.00284 6.39766e-18
3879.00482 6.19224e-18
3879.99668 5.82654e-18
3880.99866 5.97715e-18
3882.00064 5.62262e-18
3883.00262 5.87753e-18
3884.00460 6.00771e-18
3884.99645 5.95066e-18
3885.99843 5.72030e-18
3887.00041 6.16686e-18
3888.00239 6.07595e-18
3889.00437 6.46451e-18
3889.99623 6.27080e-18
3890.99821 6.07671e-18
3892.00019 6.43900e-18
3893.00217 6.04039e-18
3894.00414 6.09479e-18
3894.99600 6.17557e-18
3895.99798 6.49993e-18
3896.99996 6.21047e-18
3898.00194 5.96607e-18
3899.00392 6.01139e-18
3899.99578 6.55090e-18
3900.99776 6.56847e-18
3901.99973 6.07585e-18
3903.00171 6.27526e-18
3904.00369 6.41175e-18
3904.99555 6.19967e-18
3905.99753 6.32155e-18
3906.99951 6.45669e-18
3908.00149 6.01672e-18
3909.00347 6.03951e-18
3909.99532 6.24896e-18
3910.99730 6.14949e-18
3911.99928 5.76222e-18
3913.00126 6.61257e-18
3914.00324 6.25054e-18
3914.99510 6.28057e-18
3915.99708 5.99917e-18
3916.99906 6.00261e-18
3918.00104 6.23132e-18
3919.00302 6.75711e-18
3920.00499 6.56606e-18
3920.99685 5.91503e-18
3921.99883 6.58293e-18
3923.00081 6.53447e-18
3924.00279 6.56758e-18
3925.00477 6.32105e-18
3925.99663 6.18426e-18
3926.99861 6.56970e-18
3928.00058 6.22216e-18
3929.00256 6.26883e-18
3930.00454 6.31529e-18
3930.99640 6.37326e-18
3931.99838 5.85784e-18
3933.00036 5.58201e-18
3934.00234 5.45666e-18
3935.00432 6.02151e-18
3935.99617 5.86181e-18
3936.99815 6.18536e-18
3938.00013 6.36503e-18
3939.00211 6.07844e-18
3940.00409 5.95667e-18
3940.99595 5.96844e-18
3941.99793 6.51267e-18
3942.99991 6.53501e-18
3944.00189 6.41868e-18
3945.00386 6.24296e-18
3945.99572 6.24111e-18
3946.99770 6.07907e-18
3947.99968 6.45438e-18
3949.00166 6.70145e-18
3950.00364 6.36278e-18
3950.99550 6.31907e-18
3951.99748 6.70672e-18
3952.99945 6.66459e-18
3954.00143 6.10529e-18
3955.00341 6.75297e-18
3955.99527 6.36081e-18
3956.99725 6.29298e-18
3957.99923 6.08267e-18
3959.00121 6.56932e-18
3960.00319 6.41936e-18
3961.00517 6.36675e-18
3961.99702 6.61033e-18
3962.99900 6.45770e-18
3964.00098 6.31845e-18
3965.00296 6.34858e-18
3966.00494 6.56411e-18
3966.99680 6.38743e-18
3967.99878 6.10734e-18
3969.00076 5.91857e-18
3970.00273 6.11404e-18
3971.00471 6.13495e-18
3971.99657 6.36010e-18
3972.99855 6.43667e-18
3974.00053 6.60710e-18
3975.00251 6.48228e-18
3976.00449 6.21408e-18
3976.99635 5.87327e-18
3977.99832 6.46532e-18
3979.00030 5.79331e-18
3980.00228 5.34503e-18
3981.00426 5.79789e-18
3981.99612 5.88807e-18
3982.99810 6.31591e-18
3984.00008 6.10905e-18
3985.00206 5.82626e-18
3986.00403 6.26623e-18
3986.99589 6.44499e-18
3987.99787 6.15285e-18
3988.99985 6.26104e-18
3990.00183 5.90887e-18
3991.00381 6.18888e-18
3991.99567 6.26770e-18
3992.99765 6.18514e-18
3993.99962 6.08135e-18
3995.00160 6.01859e-18
3996.00358 6.37056e-18
3996.99544 6.34485e-18
3997.99742 6.54502e-18
3998.99940 6.19193e-18
4000.00138 6.43240e-18
4001.00336 6.08897e-18
4001.99521 6.48209e-18
4002.99719 6.18101e-18
4003.99917 6.43474e-18
4005.00115 5.88697e-18
4006.00313 6.16705e-18
4006.99499 6.30724e-18
4007.99697 6.33917e-18
4008.99895 6.70608e-18
4010.00093 6.19552e-18
4011.00291 6.32243e-18
4012.00488 6.28500e-18
4012.99674 6.45408e-18
4013.99872 6.30690e-18
4015.00070 5.79780e-18
4016.00268 5.73047e-18
4017.00466 6.16197e-18
4017.99652 6.29236e-18
4018.99849 6.72256e-18
4020.00047 6.10272e-18
4021.00245 6.62300e-18
4022.00443 6.53859e-18
4022.99629 6.37646e-18
4023.99827 6.41338e-18
4025.00025 6.46845e-18
4026.00223 6.65228e-18
4027.00421 6.04976e-18
4027.99606 5.84214e-18
4028.99804 6.23354e-18
4030.00002 6.46571e-18
4031.00200 6.27803e-18
4032.00398 6.29050e-18
4032.99584 6.24062e-18
4033.99782 6.36686e-18
4034.99980 6.58058e-18
4036.00178 6.56707e-18
4037.00375 6.18496e-18
4037.99561 6.13672e-18
4038.99759 6.34439e-18
4039.99957 6.32435e-18
4041.00155 6.46043e-18
4042.00353 6.55174e-18
4042.99539 6.36326e-18
4043.99737 6.16485e-18
4044.99934 6.23017e-18
4046.00132 6.13425e-18
4047.00330 5.87065e-18
4047.99516 6.49723e-18
4048.99714 6.45899e-18
4049.99912 6.68046e-18
4051.00110 6.14403e-18
4052.00308 6.15584e-18
4053.00506 6.13938e-18
4053.99691 6.16900e-18
4054.99889 6.22582e-18
4056.00087 6.65124e-18
4057.00285 6.58255e-18
4058.00483 6.34674e-18
4058.99669 6.13657e-18
4059.99867 6.30138e-18
4061.00064 6.59698e-18
4062.00262 5.98607e-18
4063.00460 6.09641e-18
4063.99646 6.09139e-18
4064.99844 6.30010e-18
4066.00042 6.86225e-18
4067.00240 6.63953e-18
4068.00438 6.01532e-18
4068.99624 6.30589e-18
4069.99821 6.78580e-18
4071.00019 6.34634e-18
4072.00217 6.92513e-18
4073.00415 6.18987e-18
4073.99601 6.81163e-18
4074.99799 6.60919e-18
4075.99997 6.33500e-18
4077.00195 6.53916e-18
4078.00392 6.70120e-18
4078.99578 6.65447e-18
4079.99776 6.49760e-18
4080.99974 6.52741e-18
4082.00172 6.20800e-18
4083.00370 6.29433e-18
4083.99556 6.14825e-18
4084.99754 6.38889e-18
4085.99951 6.56311e-18
4087.00149 6.02066e-18
4088.00347 6.13839e-18
4088.99533 6.35777e-18
4089.99731 6.22254e-18
4090.99929 6.32150e-18
4092.00127 6.43811e-18
4093.00325 6.42290e-18
4093.99510 6.25625e-18
4094.99708 6.46340e-18
4095.99906 6.44872e-18
4097.00104 6.23743e-18
4098.00302 6.27454e-18
4099.00500 6.63426e-18
4099.99686 6.42121e-18
4100.99884 6.41308e-18
4102.00082 6.62027e-18
4103.00279 6.61100e-18
4104.00477 6.39245e-18
4104.99663 6.41066e-18
4105.99861 6.53768e-18
4107.00059 6.40138e-18
4108.00257 6.43092e-18
4109.00455 6.35435e-18
4109.99641 6.44623e-18
4110.99838 6.26873e-18
4112.00036 6.68991e-18
4113.00234 6.41737e-18
4114.00432 6.52810e-18
4114.99618 6.46456e-18
4115.99816 6.23623e-18
4117.00014 6.57152e-18
4118.00212 6.32782e-18
4119.00410 6.64163e-18
4119.99595 6.75860e-18
4120.99793 6.57433e-18
4121.99991 6.27502e-18
4123.00189 6.82616e-18
4124.00387 6.14235e-18
4124.99573 6.12743e-18
4125.99771 6.44053e-18
4126.99969 6.41851e-18
4128.00166 6.90873e-18
4129.00364 6.62125e-18
4129.99550 6.04147e-18
4130.99748 6.57247e-18
4131.99946 5.98249e-18
4133.00144 6.49395e-18
4134.00342 6.28976e-18
4134.99528 6.08195e-18
4135.99726 5.95229e-18
4136.99923 6.43938e-18
4138.00121 6.25107e-18
4139.00319 6.19378e-18
4139.99505 6.50179e-18
4140.99703 6.36800e-18
4141.99901 6.55918e-18
4143.00099 6.55199e-18
4144.00297 6.57807e-18
4145.00494 6.65337e-18
4145.99680 6.42716e-18
4146.99878 6.86675e-18
4148.00076 6.50004e-18
4149.00274 6.61338e-18
4150.00472 6.39987e-18
4150.99658 6.24337e-18
4151.99856 6.54383e-18
4153.00054 6.11173e-18
4154.00251 6.62619e-18
4155.00449 6.38049e-18
4155.99635 6.34535e-18
4156.99833 6.82814e-18
4158.00031 6.70823e-18
4159.00229 6.76848e-18
4160.00427 6.48931e-18
4160.99612 6.61450e-18
4161.99810 6.68785e-18
4163.00008 6.72244e-18
4164.00206 6.92284e-18
4165.00404 6.60181e-18
4165.99590 6.89379e-18
4166.99788 6.51270e-18
