# wavelength flux
3300.0 1.4495784374470969e-15
3301.0 1.4495702133986916e-15
3302.0 1.4495619858103994e-15
3303.0 1.4495537546788032e-15
3304.0 1.449545520000482e-15
3305.0 1.4495372817720137e-15
3306.0 1.4495290399899703e-15
3307.0 1.4495207946509223e-15
3308.0 1.449512545751437e-15
3309.0 1.4495042932880776e-15
3310.0 1.4494960372574039e-15
3311.0 1.4494877776559732e-15
3312.0 1.4494795144803386e-15
3313.0 1.449471247727052e-15
3314.0 1.4494629773926587e-15
3315.0 1.449454703473704e-15
3316.0 1.4494464259667277e-15
3317.0 1.4494381448682672e-15
3318.0 1.4494298601748565e-15
3319.0 1.4494215718830263e-15
3320.0 1.449413279989304e-15
3321.0 1.4494049844902142e-15
3322.0 1.4493966853822765e-15
3323.0 1.4493883826620093e-15
3324.0 1.4493800763259266e-15
3325.0 1.449371766370539e-15
3326.0 1.4493634527923541e-15
3327.0 1.4493551355878767e-15
3328.0 1.4493468147536067e-15
3329.0 1.4493384902860424e-15
3330.0 1.4493301621816779e-15
3331.0 1.4493218304370036e-15
3332.0 1.4493134950485077e-15
3333.0 1.4493051560126743e-15
3334.0 1.4492968133259842e-15
3335.0 1.4492884669849147e-15
3336.0 1.4492801169859407e-15
3337.0 1.4492717633255321e-15
3338.0 1.4492634060001575e-15
3339.0 1.4492550450062798e-15
3340.0 1.4492466803403606e-15
3341.0 1.4492383119988571e-15
3342.0 1.449229939978224e-15
3343.0 1.4492215642749102e-15
3344.0 1.4492131848853647e-15
3345.0 1.4492048018060309e-15
3346.0 1.4491964150333493e-15
3347.0 1.4491880245637573e-15
3348.0 1.449179630393688e-15
3349.0 1.4491712325195726e-15
3350.0 1.4491628309378374e-15
3351.0 1.449154425644907e-15
3352.0 1.4491460166372008e-15
3353.0 1.4491376039111356e-15
3354.0 1.4491291874631252e-15
3355.0 1.4491207672895793e-15
3356.0 1.4491123433869044e-15
3357.0 1.4491039157515043e-15
3358.0 1.4490954843797779e-15
3359.0 1.4490870492681224e-15
3360.0 1.4490786104129302e-15
3361.0 1.4490701678105908e-15
3362.0 1.4490617214574905e-15
3363.0 1.4490532713500117e-15
3364.0 1.4490448174845337e-15
3365.0 1.4490363598574322e-15
3366.0 1.4490278984650794e-15
3367.0 1.4490194333038447e-15
3368.0 1.449010964370093e-15
3369.0 1.4490024916601862e-15
3370.0 1.448994015170483e-15
3371.0 1.4489855348973385e-15
3372.0 1.448977050837105e-15
3373.0 1.4489685629861292e-15
3374.0 1.4489600713407566e-15
3375.0 1.4489515758973282e-15
3376.0 1.448943076652182e-15
3377.0 1.448934573601652e-15
3378.0 1.448926066742069e-15
3379.0 1.4489175560697596e-15
3380.0 1.4489090415810491e-15
3381.0 1.4489005232722564e-15
3382.0 1.4488920011396993e-15
3383.0 1.4488834751796906e-15
3384.0 1.4488749453885401e-15
3385.0 1.4488664117625538e-15
3386.0 1.4488578742980351e-15
3387.0 1.4488493329912832e-15
3388.0 1.4488407878385938e-15
3389.0 1.448832238836259e-15
3390.0 1.4488236859805678e-15
3391.0 1.4488151292678048e-15
3392.0 1.4488065686942528e-15
3393.0 1.448798004256189e-15
3394.0 1.448789435949888e-15
3395.0 1.448780863771622e-15
3396.0 1.4487722877176572e-15
3397.0 1.4487637077842586e-15
3398.0 1.4487551239676862e-15
3399.0 1.4487465362641973e-15
3400.0 1.4487379446700447e-15
3401.0 1.4487293491814784e-15
3402.0 1.448720749794745e-15
3403.0 1.4487121465060866e-15
3404.0 1.4487035393117431e-15
3405.0 1.4486949282079494e-15
3406.0 1.448686313190938e-15
3407.0 1.4486776942569371e-15
3408.0 1.448669071402171e-15
3409.0 1.4486604446228618e-15
3410.0 1.4486518139152268e-15
3411.0 1.4486431792754798e-15
3412.0 1.4486345406998316e-15
3413.0 1.4486258981844897e-15
3414.0 1.4486172517256557e-15
3415.0 1.4486086013195311e-15
3416.0 1.4485999469623111e-15
3417.0 1.448591288650188e-15
3418.0 1.4485826263793514e-15
3419.0 1.4485739601459857e-15
3420.0 1.4485652899462733e-15
3421.0 1.4485566157763916e-15
3422.0 1.4485479376325154e-15
3423.0 1.4485392555108154e-15
3424.0 1.4485305694074584e-15
3425.0 1.4485218793186082e-15
3426.0 1.4485131852404248e-15
3427.0 1.4485044871690641e-15
3428.0 1.4484957851006785e-15
3429.0 1.4484870790314176e-15
3430.0 1.448478368957426e-15
3431.0 1.4484696548748457e-15
3432.0 1.4484609367798145e-15
3433.0 1.4484522146684667e-15
3434.0 1.4484434885369327e-15
3435.0 1.44843475838134e-15
3436.0 1.4484260241978112e-15
3437.0 1.4484172859824666e-15
3438.0 1.4484085437314214e-15
3439.0 1.4483997974407886e-15
3440.0 1.4483910471066764e-15
3441.0 1.4483822927251893e-15
3442.0 1.4483735342924291e-15
3443.0 1.4483647718044932e-15
3444.0 1.448356005257475e-15
3445.0 1.4483472346474648e-15
3446.0 1.448338459970549e-15
3447.0 1.4483296812228102e-15
3448.0 1.4483208984003272e-15
3449.0 1.4483121114991756e-15
3450.0 1.4483033205154266e-15
3451.0 1.4482945254451482e-15
3452.0 1.4482857262844043e-15
3453.0 1.4482769230292558e-15
3454.0 1.4482681156757579e-15
3455.0 1.4482593042199652e-15
3456.0 1.4482504886579255e-15
3457.0 1.4482416689856851e-15
3458.0 1.4482328451992846e-15
3459.0 1.4482240172947626e-15
3460.0 1.4482151852681531e-15
3461.0 1.4482063491154867e-15
3462.0 1.44819750883279e-15
3463.0 1.448188664416085e-15
3464.0 1.4481798158613916e-15
3465.0 1.448170963164725e-15
3466.0 1.4481621063220966e-15
3467.0 1.448153245329514e-15
3468.0 1.4481443801829811e-15
3469.0 1.4481355108784987e-15
3470.0 1.4481266374120625e-15
3471.0 1.4481177597796658e-15
3472.0 1.4481088779772963e-15
3473.0 1.44809999200094e-15
3474.0 1.4480911018465777e-15
3475.0 1.4480822075101868e-15
3476.0 1.4480733089877413e-15
3477.0 1.44806440627521e-15
3478.0 1.44805549936856e-15
3479.0 1.4480465882637522e-15
3480.0 1.4480376729567457e-15
3481.0 1.4480287534434954e-15
3482.0 1.448019829719951e-15
3483.0 1.4480109017820595e-15
3484.0 1.4480019696257643e-15
3485.0 1.447993033247004e-15
3486.0 1.4479840926417145e-15
3487.0 1.447975147805827e-15
3488.0 1.4479661987352684e-15
3489.0 1.4479572454259637e-15
3490.0 1.4479482878738316e-15
3491.0 1.4479393260747886e-15
3492.0 1.4479303600247467e-15
3493.0 1.4479213897196146e-15
3494.0 1.4479124151552962e-15
3495.0 1.447903436327692e-15
3496.0 1.4478944532326989e-15
3497.0 1.447885465866209e-15
3498.0 1.4478764742241123e-15
3499.0 1.4478674783022933e-15
3500.0 1.4478584780966324e-15
3500.54 2.9005e-16
3502.28 3.0946e-16
3504.02 3.6213e-16
3505.76 2.9039e-16
3507.5 2.9631e-16
3509.24 3.1098e-16
3510.98 3.815e-16
3512.72 2.8865e-16
3514.46 1.8104e-16
3516.19 2.0546e-16
3517.93 3.2747e-16
3519.67 4.6596e-16
3521.41 3.0505e-16
3523.15 3.1412e-16
3524.89 2.7987e-16
3526.63 1.6787e-16
3528.37 3.0427e-16
3530.11 2.3247e-16
3531.85 1.4335e-16
3533.58 1.8593e-16
3535.32 2.6297e-16
3537.06 3.3987e-16
3538.8 4.5466e-16
3540.54 3.5869e-16
3542.28 1.4071e-16
3544.02 1.7188e-16
3545.76 2.6682e-16
3547.5 2.9204e-16
3549.23 1.7819e-16
3550.97 2.2962e-16
3552.71 3.0532e-16
3554.45 2.3203e-16
3556.19 2.1623e-16
3557.93 2.6776e-16
3559.67 2.9369e-16
3561.41 2.304e-16
3563.15 3.8738e-16
3564.88 3.4292e-16
3566.62 2.7483e-16
3568.36 1.866e-16
3570.1 2.7196e-16
3571.84 3.056e-16
3573.58 4.0458e-16
3575.32 3.8749e-16
3577.06 3.2533e-16
3578.8 3.947e-16
3580.54 3.9991e-16
3582.27 2.3815e-16
3584.01 1.7551e-16
3585.75 2.2917e-16
3587.49 3.2272e-16
3589.23 3.6684e-16
3590.97 2.7385e-16
3592.71 2.494e-16
3594.45 3.0593e-16
3596.19 3.5074e-16
3597.92 3.9791e-16
3599.66 4.6466e-16
3601.4 2.8812e-16
3603.14 2.9095e-16
3604.88 3.007e-16
3606.62 2.9754e-16
3608.36 2.6863e-16
3610.1 2.7842e-16
3611.84 2.8417e-16
3613.57 1.8717e-16
3615.31 2.652e-16
3617.05 3.5596e-16
3618.79 1.7781e-16
3620.53 2.4067e-16
3622.27 2.5909e-16
3624.01 2.8894e-16
3625.75 2.6478e-16
3627.49 3.4207e-16
3629.23 3.0792e-16
3630.96 2.728e-16
3632.7 2.9046e-16
3634.44 3.2199e-16
3636.18 3.5673e-16
3637.92 4.5723e-16
3639.66 4.2524e-16
3641.4 3.3848e-16
3643.14 2.6927e-16
3644.88 3.0785e-16
3646.61 5.0903e-16
3648.35 2.9785e-16
3650.09 2.1112e-16
3651.83 3.51e-16
3653.57 3.4786e-16
3655.31 2.9687e-16
3657.05 3.2924e-16
3658.79 3.5838e-16
3660.53 2.056e-16
3662.27 2.5064e-16
3664.0 2.1384e-16
3665.74 2.3656e-16
3667.48 3.1182e-16
3669.22 3.4678e-16
3670.96 3.0618e-16
3672.7 2.7739e-16
3674.44 3.1857e-16
3676.18 2.8395e-16
3677.92 2.4938e-16
3679.65 2.1477e-16
3681.39 3.1669e-16
3683.13 3.2694e-16
3684.87 3.2338e-16
3686.61 3.4446e-16
3688.35 3.2831e-16
3690.09 3.0441e-16
3691.83 3.3555e-16
3693.57 4.2537e-16
3695.3 4.283e-16
3697.04 3.2292e-16
3698.78 3.1991e-16
3700.52 3.8835e-16
3702.26 4.1862e-16
3704.0 4.0793e-16
3705.74 4.3847e-16
3707.48 5.166e-16
3709.22 5.4083e-16
3710.96 5.2279e-16
3712.69 5.1609e-16
3714.43 4.9001e-16
3716.17 5.1255e-16
3717.91 5.5716e-16
3719.65 4.2727e-16
3721.39 5.2241e-16
3723.13 5.2458e-16
3724.87 5.5028e-16
3726.61 5.8178e-16
3728.34 6.3842e-16
3730.08 7.1252e-16
3731.82 6.7566e-16
3733.56 7.6526e-16
3735.3 7.818e-16
3737.04 6.7864e-16
3738.78 6.2461e-16
3740.52 6.5155e-16
3742.26 6.1839e-16
3744.0 6.633e-16
3745.73 5.0271e-16
3747.47 6.0519e-16
3749.21 6.7874e-16
3750.95 7.175e-16
3752.69 7.5055e-16
3754.43 7.5338e-16
3756.17 6.4485e-16
3757.91 7.2923e-16
3759.65 7.2123e-16
3761.38 7.2656e-16
3763.12 7.288e-16
3764.86 6.7985e-16
3766.6 7.9368e-16
3768.34 7.5256e-16
3770.08 7.187e-16
3771.82 6.7283e-16
3773.56 6.2849e-16
3775.3 5.8073e-16
3777.03 5.2146e-16
3778.77 5.6038e-16
3780.51 7.0553e-16
3782.25 7.067e-16
3783.99 6.1808e-16
3785.73 6.0778e-16
3787.47 6.6387e-16
3789.21 7.3856e-16
3790.95 8.2142e-16
3792.69 6.6917e-16
3794.42 6.6636e-16
3796.16 7.1014e-16
3797.9 6.869e-16
3799.64 6.7279e-16
3801.38 5.9469e-16
3803.12 5.6152e-16
3804.86 6.2288e-16
3806.6 4.1243e-16
3808.34 5.1827e-16
3810.07 5.8184e-16
3811.81 5.6395e-16
3813.55 5.6937e-16
3815.29 5.3297e-16
3817.03 4.654e-16
3818.77 6.1139e-16
3820.51 3.7377e-16
3822.25 4.3905e-16
3823.99 3.9411e-16
3825.72 4.3037e-16
3827.46 3.9301e-16
3829.2 3.1311e-16
3830.94 4.4605e-16
3832.68 3.9513e-16
3834.42 4.4582e-16
3836.16 3.9391e-16
3837.9 3.2568e-16
3839.64 3.5203e-16
3841.38 3.5367e-16
3843.11 3.1695e-16
3844.85 3.3677e-16
3846.59 3.427e-16
3848.33 3.4479e-16
3850.07 3.0704e-16
3851.81 2.7621e-16
3853.55 3.0231e-16
3855.29 2.6118e-16
3857.03 2.9109e-16
3858.76 3.5515e-16
3860.5 3.3479e-16
3862.24 2.5782e-16
3863.98 3.1017e-16
3865.72 3.1971e-16
3867.46 -3.1146e-16
3869.2 1.9032e-16
3870.94 3.8729e-16
3872.68 4.1031e-16
3874.42 3.9913e-16
3876.15 3.6506e-16
3877.89 4.3058e-16
3879.63 4.7658e-16
3881.37 4.7455e-16
3883.11 3.9822e-16
3884.85 4.5012e-16
3886.59 5.0018e-16
3888.33 5.0306e-16
3890.07 4.9313e-16
3891.8 4.8774e-16
3893.54 4.5159e-16
3895.28 5.2409e-16
3897.02 5.2331e-16
3898.76 5.1025e-16
3900.5 5.1474e-16
3902.24 5.7958e-16
3903.98 5.2829e-16
3905.72 5.814e-16
3907.45 7.2468e-16
3909.19 6.9176e-16
3910.93 7.4577e-16
3912.67 8.5035e-16
3914.41 7.3687e-16
3916.15 8.0571e-16
3917.89 7.1192e-16
3919.63 8.4076e-16
3921.37 9.507e-16
3923.11 9.3209e-16
3924.84 1.066e-15
3926.58 1.05e-15
3928.32 1.1268e-15
3930.06 1.1543e-15
3931.8 1.1152e-15
3933.54 1.068e-15
3935.28 1.2269e-15
3937.02 1.3011e-15
3938.76 1.2848e-15
3940.49 1.3097e-15
3942.23 1.2285e-15
3943.97 1.1728e-15
3945.71 1.2588e-15
3947.45 1.4109e-15
3949.19 1.3247e-15
3950.93 1.3051e-15
3952.67 1.4066e-15
3954.41 1.4578e-15
3956.15 1.4952e-15
3957.88 1.4056e-15
3959.62 1.4009e-15
3961.36 1.3911e-15
3963.1 1.5409e-15
3964.84 1.5108e-15
3966.58 1.4729e-15
3968.32 1.5036e-15
3970.06 1.3774e-15
3971.8 1.4471e-15
3973.53 1.5429e-15
3975.27 1.4968e-15
3977.01 1.5086e-15
3978.75 1.5352e-15
3980.49 1.5945e-15
3982.23 1.4979e-15
3983.97 1.5259e-15
3985.71 1.5575e-15
3987.45 1.5286e-15
3989.18 1.6399e-15
3990.92 1.4539e-15
3992.66 1.539e-15
3994.4 1.6709e-15
3996.14 1.6449e-15
3997.88 1.5204e-15
3999.62 1.6721e-15
4001.36 1.6438e-15
4003.1 1.5965e-15
4004.84 1.5575e-15
4006.57 1.6628e-15
4008.31 1.5594e-15
4010.05 1.5512e-15
4011.79 1.6993e-15
4013.53 1.5763e-15
4015.27 1.5372e-15
4017.01 1.6735e-15
4018.75 1.5107e-15
4020.49 1.4637e-15
4022.22 1.4056e-15
4023.96 1.31e-15
4025.7 1.4423e-15
4027.44 1.4257e-15
4029.18 1.4416e-15
4030.92 1.3698e-15
4032.66 1.3917e-15
4034.4 1.373e-15
4036.14 1.345e-15
4037.87 1.3933e-15
4039.61 1.4555e-15
4041.35 1.3012e-15
4043.09 1.3955e-15
4044.83 1.3689e-15
4046.57 1.409e-15
4048.31 1.44e-15
4050.05 1.3988e-15
4051.79 1.3909e-15
4053.53 1.3883e-15
4055.26 1.4137e-15
4057.0 1.3726e-15
4058.74 1.541e-15
4060.48 1.4947e-15
4062.22 1.5289e-15
4063.96 1.5083e-15
4065.7 1.4712e-15
4067.44 1.5187e-15
4069.18 1.4437e-15
4070.91 1.395e-15
4072.65 1.5298e-15
4074.39 1.4383e-15
4076.13 1.3503e-15
4077.87 1.5183e-15
4079.61 1.6158e-15
4081.35 1.5591e-15
4083.09 1.6011e-15
4084.83 1.4572e-15
4086.57 1.4139e-15
4088.3 1.5709e-15
4090.04 1.5452e-15
4091.78 1.4155e-15
4093.52 1.3826e-15
4095.26 1.4608e-15
4097.0 1.4479e-15
4098.74 1.3834e-15
4100.48 1.4487e-15
4102.22 1.4094e-15
4103.95 1.4977e-15
4105.69 1.4755e-15
4107.43 1.4352e-15
4109.17 1.4437e-15
4110.91 1.3783e-15
4112.65 1.3053e-15
4114.39 1.2942e-15
4116.13 1.3455e-15
4117.87 1.3931e-15
4119.6 1.3233e-15
4121.34 1.354e-15
4123.08 1.2827e-15
4124.82 1.2393e-15
4126.56 1.2489e-15
4128.3 1.2333e-15
4130.04 1.2776e-15
4131.78 1.2599e-15
4133.52 1.3854e-15
4135.26 1.2982e-15
4136.99 1.2992e-15
4138.73 1.3599e-15
4140.47 1.3668e-15
4142.21 1.2778e-15
4143.95 1.2372e-15
4145.69 1.3471e-15
4147.43 1.2999e-15
4149.17 1.3047e-15
4150.91 1.3539e-15
4152.64 1.2868e-15
4154.38 1.272e-15
4156.12 1.2127e-15
4157.86 1.187e-15
4159.6 1.1716e-15
4161.34 1.2426e-15
4163.08 1.15e-15
4164.82 1.1472e-15
4166.56 1.1593e-15
4168.3 1.1359e-15
4170.03 1.0949e-15
4171.77 1.0371e-15
4173.51 9.8588e-16
4175.25 9.3899e-16
4176.99 1.001e-15
4178.73 1.017e-15
4180.47 8.7998e-16
4182.21 8.5532e-16
4183.95 8.8133e-16
4185.68 8.114e-16
4187.42 8.8309e-16
4189.16 9.0501e-16
4190.9 9.5962e-16
4192.64 8.7466e-16
4194.38 9.215e-16
4196.12 8.9607e-16
4197.86 8.207e-16
4199.6 8.5355e-16
4201.33 8.5602e-16
4203.07 9.1769e-16
4204.81 8.6059e-16
4206.55 8.9847e-16
4208.29 8.9015e-16
4210.03 9.1013e-16
4211.77 9.2707e-16
4213.51 8.2327e-16
4215.25 8.6349e-16
4216.99 8.3851e-16
4218.72 7.5746e-16
4220.46 8.1962e-16
4222.2 8.5658e-16
4223.94 8.2528e-16
4225.68 7.1019e-16
4227.42 7.2584e-16
4229.16 7.4228e-16
4230.9 7.6151e-16
4232.64 7.2919e-16
4234.37 6.4104e-16
4236.11 7.6928e-16
4237.85 7.9474e-16
4239.59 7.9095e-16
4241.33 6.6719e-16
4243.07 6.5472e-16
4244.81 6.3355e-16
4246.55 7.0384e-16
4248.29 6.3438e-16
4250.03 7.3409e-16
4251.76 6.93e-16
4253.5 6.4099e-16
4255.24 5.7733e-16
4256.98 6.2903e-16
4258.72 6.6386e-16
4260.46 6.7958e-16
4262.2 6.4548e-16
4263.94 6.6741e-16
4265.68 7.012e-16
4267.41 6.6366e-16
4269.15 7.1015e-16
4270.89 7.2337e-16
4272.63 7.6397e-16
4274.37 7.8311e-16
4276.11 8.2036e-16
4277.85 7.5107e-16
4279.59 7.7079e-16
4281.33 7.6941e-16
4283.06 7.801e-16
4284.8 7.8229e-16
4286.54 8.1943e-16
4288.28 8.3989e-16
4290.02 8.5841e-16
4291.76 9.2257e-16
4293.5 9.5717e-16
4295.24 9.3974e-16
4296.98 9.9075e-16
4298.72 9.2703e-16
4300.45 9.4754e-16
4302.19 1.0059e-15
4303.93 1.0613e-15
4305.67 9.9044e-16
4307.41 9.9435e-16
4309.15 1.0663e-15
4310.89 1.0465e-15
4312.63 9.637e-16
4314.37 1.023e-15
4316.1 1.1359e-15
4317.84 1.0789e-15
4319.58 1.0288e-15
4321.32 1.0175e-15
4323.06 1.0435e-15
4324.8 9.0715e-16
4326.54 9.4847e-16
4328.28 9.7098e-16
4330.02 9.3274e-16
4331.75 9.7618e-16
4333.49 9.4586e-16
4335.23 9.5749e-16
4336.97 1.001e-15
4338.71 9.4371e-16
4340.45 1.041e-15
4342.19 9.9836e-16
4343.93 1.0041e-15
4345.67 1.0096e-15
4347.41 1.0398e-15
4349.14 1.0125e-15
4350.88 9.7214e-16
4352.62 1.0352e-15
4354.36 1.024e-15
4356.1 9.3997e-16
4357.84 9.7546e-16
4359.58 1.0281e-15
4361.32 1.116e-15
4363.06 1.1257e-15
4364.79 1.1093e-15
4366.53 1.1165e-15
4368.27 1.1926e-15
4370.01 1.1464e-15
4371.75 1.1275e-15
4373.49 1.1504e-15
4375.23 1.1658e-15
4376.97 1.1976e-15
4378.71 1.0118e-15
4380.45 1.0975e-15
4382.18 1.1669e-15
4383.92 1.1501e-15
4385.66 1.206e-15
4387.4 1.1714e-15
4389.14 1.1697e-15
4390.88 1.0479e-15
4392.62 1.1083e-15
4394.36 1.131e-15
4396.1 1.0914e-15
4397.83 1.1376e-15
4399.57 1.0947e-15
4401.31 1.0636e-15
4403.05 1.0119e-15
4404.79 1.0847e-15
4406.53 1.1307e-15
4408.27 1.0784e-15
4410.01 1.0541e-15
4411.75 1.0112e-15
4413.48 1.0022e-15
4415.22 1.0435e-15
4416.96 1.0003e-15
4418.7 9.2318e-16
4420.44 1.0481e-15
4422.18 1.0632e-15
4423.92 1.0511e-15
4425.66 1.067e-15
4427.4 1.0621e-15
4429.14 1.0642e-15
4430.87 1.0742e-15
4432.61 1.0123e-15
4434.35 1.0464e-15
4436.09 1.0088e-15
4437.83 9.6165e-16
4439.57 1.0338e-15
4441.31 1.0357e-15
4443.05 1.0204e-15
4444.79 9.6355e-16
4446.52 1.0738e-15
4448.26 1.0662e-15
4450.0 1.1569e-15
4451.74 1.1334e-15
4453.48 9.4799e-16
4455.22 9.1142e-16
4456.96 9.6961e-16
4458.7 9.9483e-16
4460.44 1.036e-15
4462.18 9.6011e-16
4463.91 1.052e-15
4465.65 1.0039e-15
4467.39 8.9134e-16
4469.13 8.6785e-16
4470.87 9.4603e-16
4472.61 1.0586e-15
4474.35 9.7192e-16
4476.09 9.0593e-16
4477.83 9.0522e-16
4479.56 9.7974e-16
4481.3 1.0214e-15
4483.04 9.2724e-16
4484.78 9.3014e-16
4486.52 9.8726e-16
4488.26 1.0045e-15
4490.0 9.5498e-16
4491.74 9.6299e-16
4493.48 1.0802e-15
4495.21 1.1178e-15
4496.95 1.0879e-15
4498.69 1.0647e-15
4500.43 1.0885e-15
4502.17 1.1689e-15
4503.91 1.1443e-15
4505.65 1.1652e-15
4507.39 1.2064e-15
4509.13 1.211e-15
4510.87 1.2332e-15
4512.6 1.2489e-15
4514.34 1.2366e-15
4516.08 1.1863e-15
4517.82 1.3716e-15
4519.56 1.4042e-15
4521.3 1.47e-15
4523.04 1.5445e-15
4524.78 1.5642e-15
4526.52 1.4798e-15
4528.25 1.5573e-15
4529.99 1.6828e-15
4531.73 1.73e-15
4533.47 1.681e-15
4535.21 1.7843e-15
4536.95 1.7719e-15
4538.69 1.6991e-15
4540.43 1.7565e-15
4542.17 1.7605e-15
4543.9 1.8228e-15
4545.64 1.894e-15
4547.38 1.9749e-15
4549.12 1.8258e-15
4550.86 1.8873e-15
4552.6 1.9333e-15
4554.34 1.9963e-15
4556.08 2.0184e-15
4557.82 1.9998e-15
4559.56 2.0074e-15
4561.29 2.0303e-15
4563.03 2.0194e-15
4564.77 2.0188e-15
4566.51 1.9103e-15
4568.25 1.9628e-15
4569.99 1.9156e-15
4571.73 1.9887e-15
4573.47 1.988e-15
4575.21 2.024e-15
4576.94 2.0642e-15
4578.68 1.9878e-15
4580.42 2.0703e-15
4582.16 2.1101e-15
4583.9 2.0739e-15
4585.64 2.0906e-15
4587.38 2.1499e-15
4589.12 2.1546e-15
4590.86 2.1837e-15
4592.6 2.1436e-15
4594.33 2.2368e-15
4596.07 2.3186e-15
4597.81 2.2879e-15
4599.55 2.2921e-15
4601.29 2.3257e-15
4603.03 2.2435e-15
4604.77 2.2916e-15
4606.51 2.4035e-15
4608.25 2.3441e-15
4609.98 2.3718e-15
4611.72 2.396e-15
4613.46 2.3204e-15
4615.2 2.3476e-15
4616.94 2.3679e-15
4618.68 2.449e-15
4620.42 2.487e-15
4622.16 2.3708e-15
4623.9 2.3163e-15
4625.63 2.3489e-15
4627.37 2.3368e-15
4629.11 2.2262e-15
4630.85 2.2916e-15
4632.59 2.3473e-15
4634.33 2.2906e-15
4636.07 2.3518e-15
4637.81 2.2907e-15
4639.55 2.3125e-15
4641.29 2.2901e-15
4643.02 2.2673e-15
4644.76 2.3389e-15
4646.5 2.2097e-15
4648.24 2.3795e-15
4649.98 2.3646e-15
4651.72 2.2694e-15
4653.46 2.3231e-15
4655.2 2.281e-15
4656.94 2.1973e-15
4658.67 2.2196e-15
4660.41 2.1664e-15
4662.15 2.0706e-15
4663.89 2.1989e-15
4665.63 2.1303e-15
4667.37 2.0269e-15
4669.11 2.0389e-15
4670.85 2.0392e-15
4672.59 1.9874e-15
4674.33 1.9817e-15
4676.06 1.9421e-15
4677.8 1.7973e-15
4679.54 1.8712e-15
4681.28 1.8632e-15
4683.02 1.8537e-15
4684.76 1.8753e-15
4686.5 1.7102e-15
4688.24 1.6452e-15
4689.98 1.6802e-15
4691.71 1.6815e-15
4693.45 1.6743e-15
4695.19 1.6485e-15
4696.93 1.6998e-15
4698.67 1.5907e-15
4700.41 1.5578e-15
4702.15 1.6517e-15
4703.89 1.6444e-15
4705.63 1.6086e-15
4707.36 1.5545e-15
4709.1 1.4285e-15
4710.84 1.4493e-15
4712.58 1.3995e-15
4714.32 1.3641e-15
4716.06 1.4164e-15
4717.8 1.4655e-15
4719.54 1.4532e-15
4721.28 1.3942e-15
4723.02 1.3771e-15
4724.75 1.3665e-15
4726.49 1.3047e-15
4728.23 1.3622e-15
4729.97 1.3321e-15
4731.71 1.3161e-15
4733.45 1.3951e-15
4735.19 1.4082e-15
4736.93 1.3666e-15
4738.67 1.2613e-15
4740.4 1.2336e-15
4742.14 1.205e-15
4743.88 1.2321e-15
4745.62 1.1778e-15
4747.36 1.2311e-15
4749.1 1.2951e-15
4750.84 1.2213e-15
4752.58 1.1639e-15
4754.32 1.1206e-15
4756.05 1.0657e-15
4757.79 1.0936e-15
4759.53 1.0523e-15
4761.27 1.0639e-15
4763.01 1.1081e-15
4764.75 1.1648e-15
4766.49 1.0342e-15
4768.23 1.0836e-15
4769.97 1.103e-15
4771.71 1.0492e-15
4773.44 1.0412e-15
4775.18 9.9469e-16
4776.92 1.0609e-15
4778.66 1.0334e-15
4780.4 1.1429e-15
4782.14 1.1105e-15
4783.88 1.1673e-15
4785.62 1.2248e-15
4787.36 1.3027e-15
4789.09 1.3584e-15
4790.83 1.3348e-15
4792.57 1.2629e-15
