# wavelength flux
3300.0 3.2082943971593416e-14
3301.0 3.208157137652787e-14
3302.0 3.208019790840755e-14
3303.0 3.2078823566757e-14
3304.0 3.207744835110059e-14
3305.0 3.207607226096258e-14
3306.0 3.207469529586705e-14
3307.0 3.2073317455337935e-14
3308.0 3.207193873889905e-14
3309.0 3.207055914607401e-14
3310.0 3.206917867638631e-14
3311.0 3.20677973293593e-14
3312.0 3.2066415104516167e-14
3313.0 3.206503200137998e-14
3314.0 3.2063648019473603e-14
3315.0 3.2062263158319784e-14
3316.0 3.206087741744115e-14
3317.0 3.205949079636013e-14
3318.0 3.205810329459901e-14
3319.0 3.205671491167999e-14
3320.0 3.2055325647125023e-14
3321.0 3.205393550045598e-14
3322.0 3.2052544471194604e-14
3323.0 3.205115255886242e-14
3324.0 3.204975976298084e-14
3325.0 3.204836608307115e-14
3326.0 3.2046971518654464e-14
3327.0 3.2045576069251733e-14
3328.0 3.2044179734383806e-14
3329.0 3.2042782513571344e-14
3330.0 3.204138440633487e-14
3331.0 3.203998541219479e-14
3332.0 3.2038585530671317e-14
3333.0 3.2037184761284547e-14
3334.0 3.203578310355444e-14
3335.0 3.203438055700077e-14
3336.0 3.2032977121143177e-14
3337.0 3.20315727955012e-14
3338.0 3.203016757959417e-14
3339.0 3.20287614729413e-14
3340.0 3.202735447506167e-14
3341.0 3.20259465854742e-14
3342.0 3.202453780369764e-14
3343.0 3.2023128129250635e-14
3344.0 3.2021717561651684e-14
3345.0 3.20203061004191e-14
3346.0 3.2018893745071094e-14
3347.0 3.201748049512571e-14
3348.0 3.2016066350100844e-14
3349.0 3.201465130951427e-14
3350.0 3.20132353728836e-14
3351.0 3.2011818539726276e-14
3352.0 3.201040080955966e-14
3353.0 3.200898218190093e-14
3354.0 3.20075626562671e-14
3355.0 3.200614223217508e-14
3356.0 3.200472090914163e-14
3357.0 3.200329868668333e-14
3358.0 3.2001875564316665e-14
3359.0 3.2000451541557956e-14
3360.0 3.199902661792335e-14
3361.0 3.199760079292891e-14
3362.0 3.199617406609052e-14
3363.0 3.199474643692392e-14
3364.0 3.199331790494471e-14
3365.0 3.199188846966837e-14
3366.0 3.19904581306102e-14
3367.0 3.198902688728539e-14
3368.0 3.198759473920897e-14
3369.0 3.198616168589582e-14
3370.0 3.198472772686071e-14
3371.0 3.198329286161825e-14
3372.0 3.198185708968289e-14
3373.0 3.198042041056896e-14
3374.0 3.1978982823790656e-14
3375.0 3.1977544328862e-14
3376.0 3.197610492529691e-14
3377.0 3.197466461260915e-14
3378.0 3.1973223390312317e-14
3379.0 3.197178125791991e-14
3380.0 3.1970338214945264e-14
3381.0 3.1968894260901575e-14
3382.0 3.1967449395301885e-14
3383.0 3.196600361765913e-14
3384.0 3.196455692748609e-14
3385.0 3.196310932429538e-14
3386.0 3.196166080759951e-14
3387.0 3.196021137691084e-14
3388.0 3.1958761031741585e-14
3389.0 3.1957309771603824e-14
3390.0 3.19558575960095e-14
3391.0 3.195440450447039e-14
3392.0 3.1952950496498184e-14
3393.0 3.1951495571604404e-14
3394.0 3.1950039729300416e-14
3395.0 3.194858296909746e-14
3396.0 3.194712529050666e-14
3397.0 3.1945666693038984e-14
3398.0 3.194420717620524e-14
3399.0 3.1942746739516146e-14
3400.0 3.1941285382482255e-14
3401.0 3.193982310461395e-14
3402.0 3.1938359905421553e-14
3403.0 3.193689578441518e-14
3404.0 3.193543074110484e-14
3405.0 3.193396477500039e-14
3406.0 3.1932497885611585e-14
3407.0 3.1931030072447995e-14
3408.0 3.192956133501907e-14
3409.0 3.192809167283417e-14
3410.0 3.192662108540244e-14
3411.0 3.1925149572232915e-14
3412.0 3.192367713283455e-14
3413.0 3.19222037667161e-14
3414.0 3.192072947338621e-14
3415.0 3.191925425235335e-14
3416.0 3.1917778103125925e-14
3417.0 3.1916301025212154e-14
3418.0 3.191482301812012e-14
3419.0 3.191334408135782e-14
3420.0 3.1911864214433055e-14
3421.0 3.1910383416853496e-14
3422.0 3.190890168812676e-14
3423.0 3.1907419027760215e-14
3424.0 3.1905935435261173e-14
3425.0 3.190445091013678e-14
3426.0 3.190296545189406e-14
3427.0 3.1901479060039895e-14
3428.0 3.189999173408104e-14
3429.0 3.1898503473524114e-14
3430.0 3.18970142778756e-14
3431.0 3.1895524146641865e-14
3432.0 3.189403307932909e-14
3433.0 3.18925410754434e-14
3434.0 3.1891048134490735e-14
3435.0 3.188955425597689e-14
3436.0 3.1888059439407596e-14
3437.0 3.188656368428837e-14
3438.0 3.188506699012466e-14
3439.0 3.188356935642174e-14
3440.0 3.188207078268477e-14
3441.0 3.1880571268418793e-14
3442.0 3.1879070813128686e-14
3443.0 3.187756941631921e-14
3444.0 3.187606707749502e-14
3445.0 3.18745637961606e-14
3446.0 3.187305957182031e-14
3447.0 3.1871554403978413e-14
3448.0 3.187004829213901e-14
3449.0 3.1868541235806067e-14
3450.0 3.186703323448344e-14
3451.0 3.1865524287674845e-14
3452.0 3.1864014394883877e-14
3453.0 3.1862503555613984e-14
3454.0 3.186099176936849e-14
3455.0 3.1859479035650595e-14
3456.0 3.185796535396338e-14
3457.0 3.185645072380977e-14
3458.0 3.1854935144692576e-14
3459.0 3.185341861611449e-14
3460.0 3.185190113757806e-14
3461.0 3.185038270858569e-14
3462.0 3.184886332863971e-14
3463.0 3.184734299724226e-14
3464.0 3.184582171389539e-14
3465.0 3.1844299478101006e-14
3466.0 3.184277628936089e-14
3467.0 3.184125214717671e-14
3468.0 3.1839727051049965e-14
3469.0 3.1838201000482084e-14
3470.0 3.183667399497433e-14
3471.0 3.183514603402785e-14
3472.0 3.183361711714366e-14
3473.0 3.183208724382266e-14
3474.0 3.183055641356561e-14
3475.0 3.182902462587315e-14
3476.0 3.182749188024579e-14
3477.0 3.182595817618392e-14
3478.0 3.1824423513187816e-14
3479.0 3.1822887890757596e-14
3480.0 3.182135130839327e-14
3481.0 3.1819813765594746e-14
3482.0 3.181827526186176e-14
3483.0 3.181673579669395e-14
3484.0 3.181519536959084e-14
3485.0 3.1813653980051807e-14
3486.0 3.181211162757611e-14
3487.0 3.1810568311662886e-14
3488.0 3.180902403181115e-14
3489.0 3.180747878751979e-14
3490.0 3.180593257828758e-14
3491.0 3.180438540361315e-14
3492.0 3.1802837262995006e-14
3493.0 3.1801288155931575e-14
3494.0 3.179973808192111e-14
3495.0 3.179818704046175e-14
3496.0 3.1796635031051535e-14
3497.0 3.179508205318836e-14
3498.0 3.1793528106370016e-14
3499.0 3.1791973190094154e-14
3500.0 3.1790417303858306e-14
3500.79 2.4055e-14
3501.58 2.4169e-14
3502.36 2.3764e-14
3503.15 2.3346e-14
3503.94 2.3175e-14
3504.73 2.362e-14
3505.51 2.4405e-14
3506.3 2.4866e-14
3507.09 2.4883e-14
3507.88 2.5005e-14
3508.66 2.4399e-14
3509.45 2.4324e-14
3510.24 2.4805e-14
3511.03 2.4831e-14
3511.82 2.3365e-14
3512.6 2.3487e-14
3513.39 2.4583e-14
3514.18 2.4089e-14
3514.97 2.4493e-14
3515.75 2.4977e-14
3516.54 2.6116e-14
3517.33 2.6583e-14
3518.12 2.5567e-14
3518.9 2.4954e-14
3519.69 2.6133e-14
3520.48 2.6771e-14
3521.27 2.6096e-14
3522.06 2.5583e-14
3522.84 2.6229e-14
3523.63 2.5601e-14
3524.42 2.6419e-14
3525.21 2.6223e-14
3525.99 2.6602e-14
3526.78 2.7535e-14
3527.57 2.5962e-14
3528.36 2.6363e-14
3529.14 2.5838e-14
3529.93 2.7127e-14
3530.72 2.722e-14
3531.51 2.7229e-14
3532.3 2.7524e-14
3533.08 2.7446e-14
3533.87 2.7896e-14
3534.66 2.8404e-14
3535.45 2.8024e-14
3536.23 2.8317e-14
3537.02 2.9122e-14
3537.81 2.9168e-14
3538.6 2.9187e-14
3539.38 2.9574e-14
3540.17 2.93e-14
3540.96 2.9094e-14
3541.75 2.8256e-14
3542.54 2.9584e-14
3543.32 2.8917e-14
3544.11 2.9385e-14
3544.9 3.0266e-14
3545.69 2.916e-14
3546.47 3.0039e-14
3547.26 2.9749e-14
3548.05 2.99e-14
3548.84 3.0252e-14
3549.62 3.0082e-14
3550.41 3.0514e-14
3551.2 3.0933e-14
3551.99 3.0587e-14
3552.78 3.0591e-14
3553.56 3.0458e-14
3554.35 3.105e-14
3555.14 2.9585e-14
3555.93 2.9484e-14
3556.71 3.0735e-14
3557.5 2.9995e-14
3558.29 3.0504e-14
3559.08 1.0112e-13
3559.86 9.4052e-14
3560.65 5.0144e-14
3561.44 3.2847e-14
3562.23 3.0005e-14
3563.02 3.0452e-14
3563.8 3.0142e-14
3564.59 2.956e-14
3565.38 2.9246e-14
3566.17 2.9976e-14
3566.95 3.0095e-14
3567.74 3.1093e-14
3568.53 3.1375e-14
3569.32 3.1649e-14
3570.1 3.6589e-14
3570.89 3.2971e-14
3571.68 3.0934e-14
3572.47 3.0202e-14
3573.26 3.0695e-14
3574.04 3.0069e-14
3574.83 2.9546e-14
3575.62 3.0471e-14
3576.41 3.1201e-14
3577.19 3.1183e-14
3577.98 3.0623e-14
3578.77 3.0501e-14
3579.56 3.0529e-14
3580.34 3.0399e-14
3581.13 3.061e-14
3581.92 2.9982e-14
3582.71 2.9193e-14
3583.5 2.9729e-14
3584.28 3.0507e-14
3585.07 3.0954e-14
3585.86 3.0622e-14
3586.65 2.9949e-14
3587.43 2.9947e-14
3588.22 2.943e-14
3589.01 2.8155e-14
3589.8 2.8876e-14
3590.58 2.9372e-14
3591.37 2.8997e-14
3592.16 3.0126e-14
3592.95 2.9945e-14
3593.74 2.9877e-14
3594.52 3.0037e-14
3595.31 2.9179e-14
3596.1 2.847e-14
3596.89 2.9188e-14
3597.67 2.9819e-14
3598.46 2.8899e-14
3599.25 2.8533e-14
3600.04 2.773e-14
3600.82 2.8376e-14
3601.61 2.7938e-14
3602.4 2.7724e-14
3603.19 2.9063e-14
3603.98 2.8245e-14
3604.76 2.8465e-14
3605.55 2.838e-14
3606.34 2.8312e-14
3607.13 2.8431e-14
3607.91 2.9117e-14
3608.7 2.7623e-14
3609.49 2.7373e-14
3610.28 2.7707e-14
3611.06 2.9124e-14
3611.85 2.7895e-14
3612.64 2.6793e-14
3613.43 2.6222e-14
3614.22 2.689e-14
3615.0 2.6862e-14
3615.79 2.6968e-14
3616.58 2.6683e-14
3617.37 2.5814e-14
3618.15 2.6813e-14
3618.94 2.6131e-14
3619.73 2.6861e-14
3620.52 2.7313e-14
3621.3 2.7477e-14
3622.09 2.723e-14
3622.88 2.6367e-14
3623.67 2.5822e-14
3624.46 2.71e-14
3625.24 2.6835e-14
3626.03 2.7079e-14
3626.82 2.6741e-14
3627.61 2.5895e-14
3628.39 2.5958e-14
3629.18 2.5226e-14
3629.97 2.5596e-14
3630.76 2.4843e-14
3631.54 2.4783e-14
3632.33 2.5e-14
3633.12 2.5218e-14
3633.91 2.4973e-14
3634.7 2.5331e-14
3635.48 2.5109e-14
3636.27 2.4932e-14
3637.06 2.4648e-14
3637.85 2.4417e-14
3638.63 2.5496e-14
3639.42 2.4862e-14
3640.21 2.5636e-14
3641.0 2.5239e-14
3641.78 2.4564e-14
3642.57 2.4991e-14
3643.36 2.5709e-14
3644.15 2.5196e-14
3644.94 2.4589e-14
3645.72 2.4883e-14
3646.51 2.4243e-14
3647.3 2.4799e-14
3648.09 2.5234e-14
3648.87 2.5588e-14
3649.66 2.5412e-14
3650.45 2.5189e-14
3651.24 2.5081e-14
3652.02 2.4916e-14
3652.81 2.5257e-14
3653.6 2.61e-14
3654.39 2.5052e-14
3655.18 2.5947e-14
3655.96 2.6238e-14
3656.75 2.6403e-14
3657.54 2.6117e-14
3658.33 2.6219e-14
3659.11 2.5692e-14
3659.9 2.6403e-14
3660.69 2.6461e-14
3661.48 2.5335e-14
3662.26 2.605e-14
3663.05 2.6791e-14
3663.84 2.6676e-14
3664.63 2.6613e-14
3665.42 2.6722e-14
3666.2 2.7614e-14
3666.99 2.8035e-14
3667.78 2.7624e-14
3668.57 2.8065e-14
3669.35 2.6708e-14
3670.14 2.8015e-14
3670.93 2.7996e-14
3671.72 2.8181e-14
3672.5 2.7781e-14
3673.29 2.8254e-14
3674.08 2.9036e-14
3674.87 2.8424e-14
3675.66 2.89e-14
3676.44 2.9421e-14
3677.23 2.9631e-14
3678.02 2.9573e-14
3678.81 3.0386e-14
3679.59 3.0432e-14
3680.38 3.0157e-14
3681.17 2.9825e-14
3681.96 3.0737e-14
3682.74 3.0819e-14
3683.53 3.0652e-14
3684.32 3.0969e-14
3685.11 3.1234e-14
3685.9 3.1826e-14
3686.68 3.2049e-14
3687.47 3.1605e-14
3688.26 3.1131e-14
3689.05 3.5031e-14
3689.83 3.2929e-14
3690.62 3.2856e-14
3691.41 3.302e-14
3692.2 3.2829e-14
3692.98 3.255e-14
3693.77 3.3108e-14
3694.56 3.3723e-14
3695.35 3.3926e-14
3696.14 3.3375e-14
3696.92 3.5001e-14
3697.71 3.3624e-14
3698.5 3.4003e-14
3699.29 3.5102e-14
3700.07 3.5069e-14
3700.86 3.5455e-14
3701.65 3.562e-14
3702.44 3.5216e-14
3703.22 3.534e-14
3704.01 3.6049e-14
3704.8 3.5817e-14
3705.59 3.5857e-14
3706.38 3.6267e-14
3707.16 3.6747e-14
3707.95 3.7025e-14
3708.74 3.6518e-14
3709.53 3.6701e-14
3710.31 3.6504e-14
3711.1 3.6186e-14
3711.89 3.6314e-14
3712.68 3.6552e-14
3713.46 3.7451e-14
3714.25 3.6692e-14
3715.04 3.7094e-14
3715.83 3.7415e-14
3716.62 3.7319e-14
3717.4 3.7005e-14
3718.19 3.684e-14
3718.98 3.7477e-14
3719.77 3.8077e-14
3720.55 3.776e-14
3721.34 3.8116e-14
3722.13 3.8642e-14
3722.92 3.8007e-14
3723.7 3.7508e-14
3724.49 3.7283e-14
3725.28 3.8018e-14
3726.07 3.7598e-14
3726.86 3.672e-14
3727.64 3.7041e-14
3728.43 3.7841e-14
3729.22 3.7165e-14
3730.01 3.7231e-14
3730.79 3.7483e-14
3731.58 3.6815e-14
3732.37 3.6978e-14
3733.16 3.7565e-14
3733.94 3.7448e-14
3734.73 3.716e-14
3735.52 3.5999e-14
3736.31 3.6258e-14
3737.1 3.6433e-14
3737.88 3.5974e-14
3738.67 3.6113e-14
3739.46 3.6385e-14
3740.25 3.5886e-14
3741.03 3.5344e-14
3741.82 3.5667e-14
3742.61 3.5717e-14
3743.4 3.5631e-14
3744.18 3.5084e-14
3744.97 3.458e-14
3745.76 3.4936e-14
3746.55 3.4511e-14
3747.34 3.4485e-14
3748.12 3.38e-14
3748.91 3.338e-14
3749.7 3.2913e-14
3750.49 3.4051e-14
3751.27 3.3665e-14
3752.06 3.3199e-14
3752.85 3.3058e-14
3753.64 3.2975e-14
3754.42 3.3585e-14
3755.21 3.3355e-14
3756.0 3.2616e-14
3756.79 3.2557e-14
3757.58 3.3028e-14
3758.36 3.2706e-14
3759.15 3.2321e-14
3759.94 3.2209e-14
3760.73 3.2401e-14
3761.51 3.236e-14
3762.3 3.2217e-14
3763.09 3.1603e-14
3763.88 3.1453e-14
3764.66 3.1428e-14
3765.45 3.1118e-14
3766.24 3.0628e-14
3767.03 3.1353e-14
3767.82 3.0967e-14
3768.6 3.0441e-14
3769.39 3.0146e-14
3770.18 3.0254e-14
3770.97 3.0998e-14
3771.75 3.0219e-14
3772.54 3.0212e-14
3773.33 3.0144e-14
3774.12 3.0408e-14
3774.9 2.988e-14
3775.69 3.0074e-14
3776.48 3.0134e-14
3777.27 2.9699e-14
3778.06 2.9468e-14
3778.84 3.0047e-14
3779.63 2.9761e-14
3780.42 2.9232e-14
3781.21 2.9212e-14
3781.99 3.0135e-14
3782.78 2.9529e-14
3783.57 2.8775e-14
3784.36 2.9362e-14
3785.14 2.9132e-14
3785.93 2.9095e-14
3786.72 2.8554e-14
3787.51 2.8651e-14
3788.3 2.9178e-14
3789.08 2.8463e-14
3789.87 2.8701e-14
3790.66 2.8028e-14
3791.45 2.8215e-14
3792.23 2.8305e-14
3793.02 2.8379e-14
3793.81 2.7908e-14
3794.6 2.803e-14
3795.38 2.7945e-14
3796.17 2.7207e-14
3796.96 2.7319e-14
3797.75 2.7261e-14
3798.54 2.7357e-14
3799.32 2.7026e-14
3800.11 2.6646e-14
3800.9 2.7135e-14
3801.69 2.6837e-14
3802.47 2.6735e-14
3803.26 2.6262e-14
3804.05 2.6194e-14
3804.84 2.6018e-14
3805.62 2.5711e-14
3806.41 2.4963e-14
3807.2 2.5236e-14
3807.99 2.5482e-14
3808.78 2.578e-14
3809.56 2.612e-14
3810.35 2.5508e-14
3811.14 2.5143e-14
3811.93 2.494e-14
3812.71 2.476e-14
3813.5 2.495e-14
3814.29 2.5128e-14
3815.08 2.5127e-14
3815.86 2.5379e-14
3816.65 2.5442e-14
3817.44 2.5412e-14
3818.23 2.5851e-14
3819.02 2.589e-14
3819.8 2.5842e-14
3820.59 2.6045e-14
3821.38 2.5838e-14
3822.17 2.5258e-14
3822.95 2.5634e-14
3823.74 2.5349e-14
3824.53 2.577e-14
3825.32 2.5467e-14
3826.1 2.5647e-14
3826.89 2.5711e-14
3827.68 2.5808e-14
3828.47 2.5448e-14
3829.26 2.5054e-14
3830.04 2.531e-14
3830.83 2.5278e-14
3831.62 2.5226e-14
3832.41 2.5196e-14
3833.19 2.4857e-14
3833.98 2.4658e-14
3834.77 2.4468e-14
3835.56 2.4919e-14
3836.34 2.4755e-14
3837.13 2.4397e-14
3837.92 2.478e-14
3838.71 2.4565e-14
3839.5 2.4821e-14
3840.28 2.4233e-14
3841.07 2.4595e-14
3841.86 2.4534e-14
3842.65 2.4585e-14
3843.43 2.4774e-14
3844.22 2.453e-14
3845.01 2.4344e-14
3845.8 2.4411e-14
3846.59 2.4323e-14
3847.37 2.4818e-14
3848.16 2.5095e-14
3848.95 2.4682e-14
3849.74 2.4563e-14
3850.52 2.4488e-14
3851.31 2.5426e-14
3852.1 2.4918e-14
3852.89 2.5101e-14
3853.67 2.5353e-14
3854.46 2.5282e-14
3855.25 2.5726e-14
3856.04 2.5793e-14
3856.83 2.5982e-14
3857.61 2.5488e-14
3858.4 2.5422e-14
3859.19 2.6128e-14
3859.98 2.6323e-14
3860.76 2.6603e-14
3861.55 2.6909e-14
3862.34 2.6349e-14
3863.13 2.6135e-14
3863.91 2.5762e-14
3864.7 2.6121e-14
3865.49 2.6747e-14
3866.28 2.7615e-14
3867.07 2.7224e-14
3867.85 2.6658e-14
3868.64 2.6646e-14
3869.43 2.7172e-14
3870.22 2.7864e-14
3871.0 2.7923e-14
3871.79 2.7756e-14
3872.58 2.7955e-14
3873.37 2.8433e-14
3874.15 2.8095e-14
3874.94 2.7706e-14
3875.73 2.8193e-14
3876.52 2.8355e-14
3877.31 2.826e-14
3878.09 2.8455e-14
3878.88 2.8703e-14
3879.67 2.861e-14
3880.46 2.8989e-14
3881.24 2.902e-14
3882.03 2.8961e-14
3882.82 2.9015e-14
3883.61 2.9494e-14
3884.39 2.9626e-14
3885.18 2.9277e-14
3885.97 2.9371e-14
3886.76 2.9982e-14
3887.55 3.0311e-14
3888.33 3.0269e-14
3889.12 3.0075e-14
3889.91 3.0433e-14
3890.7 3.0607e-14
3891.48 3.0737e-14
3892.27 3.0433e-14
3893.06 3.1013e-14
3893.85 3.1197e-14
3894.63 3.1343e-14
3895.42 3.126e-14
3896.21 3.1728e-14
3897.0 3.1265e-14
3897.79 3.2184e-14
3898.57 3.2308e-14
3899.36 3.2502e-14
3900.15 3.2092e-14
3900.94 3.247e-14
3901.72 3.2317e-14
3902.51 3.233e-14
3903.3 3.3326e-14
3904.09 3.3312e-14
3904.87 3.3899e-14
3905.66 3.385e-14
3906.45 3.3647e-14
3907.24 3.3574e-14
3908.03 3.4043e-14
3908.81 3.4333e-14
3909.6 3.4338e-14
3910.39 3.4496e-14
3911.18 3.4575e-14
3911.96 3.4725e-14
3912.75 3.5191e-14
3913.54 3.5311e-14
3914.33 3.531e-14
3915.11 3.5865e-14
3915.9 3.4895e-14
3916.69 3.5702e-14
3917.48 3.5237e-14
3918.27 3.5481e-14
3919.05 3.5877e-14
3919.84 3.6504e-14
3920.63 3.6266e-14
3921.42 3.5863e-14
3922.2 3.5961e-14
3922.99 3.5994e-14
3923.78 3.6632e-14
3924.57 3.6575e-14
3925.35 3.6323e-14
3926.14 3.6616e-14
3926.93 3.6904e-14
3927.72 3.6725e-14
3928.51 3.6402e-14
3929.29 3.6908e-14
3930.08 3.6873e-14
3930.87 3.6801e-14
3931.66 3.6955e-14
3932.44 3.4624e-14
3933.23 3.2106e-14
3934.02 3.2902e-14
3934.81 3.5785e-14
3935.59 3.726e-14
3936.38 3.727e-14
3937.17 3.7336e-14
3937.96 3.7539e-14
3938.75 3.7245e-14
3939.53 3.7395e-14
3940.32 3.6626e-14
3941.11 3.4807e-14
3941.9 3.3662e-14
3942.68 3.5177e-14
3943.47 3.7555e-14
3944.26 3.7798e-14
3945.05 3.7412e-14
3945.83 3.7806e-14
3946.62 3.7796e-14
3947.41 3.7582e-14
3948.2 3.7189e-14
3948.99 3.7276e-14
3949.77 3.6995e-14
3950.56 3.6796e-14
3951.35 3.704e-14
3952.14 3.6807e-14
3952.92 3.703e-14
3953.71 3.7294e-14
3954.5 3.7385e-14
3955.29 3.7523e-14
3956.07 3.7407e-14
3956.86 3.7182e-14
3957.65 3.754e-14
3958.44 3.7431e-14
3959.23 3.7342e-14
3960.01 3.7018e-14
3960.8 3.7041e-14
3961.59 3.7397e-14
3962.38 3.7012e-14
3963.16 3.7226e-14
3963.95 3.7499e-14
3964.74 3.7581e-14
3965.53 3.7244e-14
3966.31 3.7133e-14
3967.1 3.6244e-14
3967.89 3.4545e-14
3968.68 3.4018e-14
3969.47 3.6118e-14
3970.25 3.6998e-14
3971.04 3.7499e-14
3971.83 3.7539e-14
3972.62 3.7396e-14
3973.4 3.7136e-14
3974.19 3.7569e-14
3974.98 3.6925e-14
3975.77 3.5919e-14
3976.55 3.5507e-14
3977.34 3.6047e-14
3978.13 3.6625e-14
3978.92 3.7083e-14
3979.71 3.6668e-14
3980.49 3.7014e-14
3981.28 3.7448e-14
3982.07 3.6884e-14
3982.86 3.7464e-14
3983.64 3.7387e-14
3984.43 3.7261e-14
3985.22 3.6959e-14
3986.01 3.7486e-14
3986.79 3.7992e-14
3987.58 3.6956e-14
3988.37 3.7663e-14
3989.16 3.7689e-14
3989.95 3.7074e-14
3990.73 3.7578e-14
3991.52 3.7411e-14
3992.31 3.7515e-14
3993.1 3.738e-14
3993.88 3.739e-14
3994.67 3.7355e-14
3995.46 3.7261e-14
3996.25 3.7303e-14
3997.03 3.7323e-14
3997.82 3.7476e-14
3998.61 3.7322e-14
3999.4 3.7066e-14
4000.19 3.738e-14
4000.97 3.7151e-14
4001.76 3.7521e-14
4002.55 3.7202e-14
4003.34 3.7074e-14
4004.12 3.735e-14
4004.91 3.6876e-14
4005.7 3.6576e-14
4006.49 3.6542e-14
4007.27 3.6402e-14
4008.06 3.5941e-14
4008.85 3.6249e-14
4009.64 3.6325e-14
4010.43 3.5228e-14
4011.21 3.5308e-14
4012.0 3.5491e-14
4012.79 3.5374e-14
4013.58 3.4879e-14
4014.36 3.482e-14
4015.15 3.4862e-14
4015.94 3.4831e-14
4016.73 3.4285e-14
4017.51 3.4232e-14
4018.3 3.4389e-14
4019.09 3.3773e-14
4019.88 3.3063e-14
4020.67 3.3127e-14
4021.45 3.3176e-14
4022.24 3.3035e-14
4023.03 3.2601e-14
4023.82 3.2295e-14
4024.6 3.2443e-14
4025.39 3.2194e-14
4026.18 3.2136e-14
4026.97 3.1893e-14
4027.75 3.2168e-14
4028.54 3.1333e-14
4029.33 3.0967e-14
4030.12 3.1498e-14
4030.91 3.1044e-14
4031.69 3.0855e-14
4032.48 3.109e-14
4033.27 3.0183e-14
4034.06 3.0416e-14
4034.84 3.0235e-14
4035.63 2.9904e-14
4036.42 3.0534e-14
4037.21 3.0432e-14
4037.99 3.0474e-14
4038.78 2.9863e-14
4039.57 3.0309e-14
4040.36 2.9951e-14
4041.15 3.0036e-14
4041.93 3.0439e-14
4042.72 3.025e-14
4043.51 3.0512e-14
4044.3 3.0211e-14
4045.08 3.075e-14
4045.87 3.0305e-14
4046.66 3.0204e-14
4047.45 3.0116e-14
4048.23 3.0776e-14
4049.02 3.0539e-14
4049.81 2.9934e-14
4050.6 3.0094e-14
4051.39 3.0174e-14
4052.17 3.0135e-14
4052.96 3.0375e-14
4053.75 3.0493e-14
4054.54 3.0634e-14
4055.32 3.0878e-14
4056.11 3.0958e-14
4056.9 3.1057e-14
4057.69 3.1233e-14
4058.47 3.1139e-14
4059.26 3.138e-14
4060.05 3.1436e-14
4060.84 3.1724e-14
4061.63 3.1604e-14
4062.41 3.1445e-14
4063.2 3.1028e-14
4063.99 3.1696e-14
4064.78 3.2139e-14
4065.56 3.1965e-14
4066.35 3.182e-14
4067.14 3.2251e-14
4067.93 3.2236e-14
4068.71 3.2239e-14
4069.5 3.2091e-14
4070.29 3.2334e-14
4071.08 3.2439e-14
4071.87 3.217e-14
4072.65 3.2478e-14
4073.44 3.2621e-14
4074.23 3.2539e-14
4075.02 3.2899e-14
4075.8 3.2808e-14
4076.59 3.3163e-14
4077.38 3.3253e-14
4078.17 3.3266e-14
4078.95 3.284e-14
4079.74 3.2799e-14
4080.53 3.3393e-14
4081.32 3.3154e-14
4082.11 3.365e-14
4082.89 3.3669e-14
4083.68 3.3882e-14
4084.47 3.3589e-14
4085.26 3.3679e-14
4086.04 3.3958e-14
4086.83 3.3813e-14
4087.62 3.3753e-14
4088.41 3.4394e-14
4089.19 3.4137e-14
4089.98 3.3946e-14
4090.77 3.3718e-14
