# wavelength flux
3300.0 7.108060825492635e-15
3301.0 7.107957852228594e-15
3302.0 7.107854877309117e-15
3303.0 7.107751900730187e-15
3304.0 7.107648922487777e-15
3305.0 7.107545942577842e-15
3306.0 7.107442960996355e-15
3307.0 7.107339977739267e-15
3308.0 7.107236992802527e-15
3309.0 7.107134006182081e-15
3310.0 7.10703101787387e-15
3311.0 7.106928027873829e-15
3312.0 7.106825036177888e-15
3313.0 7.106722042781968e-15
3314.0 7.106619047681991e-15
3315.0 7.106516050873869e-15
3316.0 7.106413052353513e-15
3317.0 7.10631005211682e-15
3318.0 7.106207050159694e-15
3319.0 7.106104046478026e-15
3320.0 7.106001041067702e-15
3321.0 7.105898033924608e-15
3322.0 7.105795025044615e-15
3323.0 7.105692014423598e-15
3324.0 7.105589002057417e-15
3325.0 7.10548598794194e-15
3326.0 7.105382972073019e-15
3327.0 7.105279954446506e-15
3328.0 7.105176935058242e-15
3329.0 7.105073913904068e-15
3330.0 7.1049708909798155e-15
3331.0 7.104867866281318e-15
3332.0 7.104764839804395e-15
3333.0 7.104661811544862e-15
3334.0 7.1045587814985366e-15
3335.0 7.1044557496612216e-15
3336.0 7.104352716028718e-15
3337.0 7.104249680596825e-15
3338.0 7.104146643361329e-15
3339.0 7.104043604318018e-15
3340.0 7.1039405634626725e-15
3341.0 7.103837520791064e-15
3342.0 7.103734476298962e-15
3343.0 7.1036314299821295e-15
3344.0 7.1035283818363246e-15
3345.0 7.103425331857299e-15
3346.0 7.103322280040802e-15
3347.0 7.103219226382572e-15
3348.0 7.103116170878347e-15
3349.0 7.103013113523853e-15
3350.0 7.10291005431482e-15
3351.0 7.102806993246964e-15
3352.0 7.102703930316e-15
3353.0 7.102600865517635e-15
3354.0 7.102497798847574e-15
3355.0 7.102394730301509e-15
3356.0 7.102291659875137e-15
3357.0 7.102188587564142e-15
3358.0 7.1020855133642025e-15
3359.0 7.101982437270996e-15
3360.0 7.10187935928019e-15
3361.0 7.1017762793874486e-15
3362.0 7.101673197588431e-15
3363.0 7.101570113878786e-15
3364.0 7.101467028254163e-15
3365.0 7.101363940710204e-15
3366.0 7.1012608512425415e-15
3367.0 7.101157759846807e-15
3368.0 7.1010546665186255e-15
3369.0 7.1009515712536144e-15
3370.0 7.100848474047389e-15
3371.0 7.10074537489555e-15
3372.0 7.100642273793705e-15
3373.0 7.100539170737449e-15
3374.0 7.10043606572237e-15
3375.0 7.100332958744053e-15
3376.0 7.100229849798078e-15
3377.0 7.100126738880019e-15
3378.0 7.1000236259854394e-15
3379.0 7.099920511109904e-15
3380.0 7.099817394248964e-15
3381.0 7.099714275398177e-15
3382.0 7.09961115455308e-15
3383.0 7.099508031709218e-15
3384.0 7.0994049068621204e-15
3385.0 7.099301780007313e-15
3386.0 7.0991986511403214e-15
3387.0 7.099095520256655e-15
3388.0 7.098992387351827e-15
3389.0 7.098889252421341e-15
3390.0 7.098786115460696e-15
3391.0 7.098682976465381e-15
3392.0 7.098579835430887e-15
3393.0 7.098476692352692e-15
3394.0 7.09837354722627e-15
3395.0 7.098270400047089e-15
3396.0 7.098167250810615e-15
3397.0 7.098064099512305e-15
3398.0 7.097960946147608e-15
3399.0 7.0978577907119684e-15
3400.0 7.0977546332008305e-15
3401.0 7.0976514736096265e-15
3402.0 7.0975483119337795e-15
3403.0 7.0974451481687165e-15
3404.0 7.097341982309852e-15
3405.0 7.097238814352593e-15
3406.0 7.0971356442923476e-15
3407.0 7.097032472124512e-15
3408.0 7.0969292978444794e-15
3409.0 7.096826121447634e-15
3410.0 7.0967229429293554e-15
3411.0 7.096619762285023e-15
3412.0 7.096516579509999e-15
3413.0 7.0964133945996506e-15
3414.0 7.096310207549329e-15
3415.0 7.09620701835439e-15
3416.0 7.096103827010173e-15
3417.0 7.096000633512019e-15
3418.0 7.0958974378552604e-15
3419.0 7.095794240035222e-15
3420.0 7.095691040047226e-15
3421.0 7.095587837886582e-15
3422.0 7.095484633548603e-15
3423.0 7.095381427028588e-15
3424.0 7.095278218321834e-15
3425.0 7.095175007423631e-15
3426.0 7.095071794329263e-15
3427.0 7.0949685790340056e-15
3428.0 7.094865361533132e-15
3429.0 7.094762141821909e-15
3430.0 7.094658919895592e-15
3431.0 7.094555695749439e-15
3432.0 7.094452469378693e-15
3433.0 7.094349240778595e-15
3434.0 7.094246009944383e-15
3435.0 7.0941427768712846e-15
3436.0 7.094039541554519e-15
3437.0 7.093936303989305e-15
3438.0 7.093833064170851e-15
3439.0 7.093729822094363e-15
3440.0 7.09362657775504e-15
3441.0 7.09352333114807e-15
3442.0 7.0934200822686385e-15
3443.0 7.093316831111925e-15
3444.0 7.093213577673106e-15
3445.0 7.09311032194734e-15
3446.0 7.093007063929795e-15
3447.0 7.092903803615622e-15
3448.0 7.0928005409999675e-15
3449.0 7.092697276077976e-15
3450.0 7.092594008844778e-15
3451.0 7.092490739295508e-15
3452.0 7.092387467425286e-15
3453.0 7.0922841932292275e-15
3454.0 7.0921809167024445e-15
3455.0 7.092077637840036e-15
3456.0 7.0919743566371064e-15
3457.0 7.091871073088741e-15
3458.0 7.091767787190026e-15
3459.0 7.0916644989360425e-15
3460.0 7.0915612083218595e-15
3461.0 7.091457915342542e-15
3462.0 7.091354619993151e-15
3463.0 7.0912513222687395e-15
3464.0 7.091148022164353e-15
3465.0 7.091044719675031e-15
3466.0 7.090941414795808e-15
3467.0 7.0908381075217124e-15
3468.0 7.090734797847761e-15
3469.0 7.090631485768973e-15
3470.0 7.090528171280352e-15
3471.0 7.090424854376902e-15
3472.0 7.090321535053617e-15
3473.0 7.090218213305485e-15
3474.0 7.090114889127489e-15
3475.0 7.090011562514604e-15
3476.0 7.089908233461798e-15
3477.0 7.089804901964038e-15
3478.0 7.089701568016274e-15
3479.0 7.089598231613458e-15
3480.0 7.089494892750534e-15
3481.0 7.089391551422439e-15
3482.0 7.0892882076240985e-15
3483.0 7.089184861350439e-15
3484.0 7.089081512596376e-15
3485.0 7.0889781613568224e-15
3486.0 7.08887480762668e-15
3487.0 7.088771451400844e-15
3488.0 7.088668092674208e-15
3489.0 7.088564731441653e-15
3490.0 7.088461367698058e-15
3491.0 7.088358001438293e-15
3492.0 7.088254632657221e-15
3493.0 7.088151261349701e-15
3494.0 7.088047887510584e-15
3495.0 7.087944511134711e-15
3496.0 7.0878411322169226e-15
3497.0 7.0877377507520454e-15
3498.0 7.0876343667349074e-15
3499.0 7.087530980160324e-15
3500.0 7.0874275910231066e-15
3501.0 7.087324199318057e-15
3501.3 1.3742e-15
3503.04 1.2975e-15
3504.78 1.2736e-15
3506.52 1.3812e-15
3508.26 1.1653e-15
3509.99 1.2686e-15
3511.73 1.2244e-15
3513.47 1.3241e-15
3515.21 1.1979e-15
3516.95 1.0726e-15
3518.69 1.1971e-15
3520.43 1.1536e-15
3522.17 1.2373e-15
3523.91 1.236e-15
3525.64 1.2635e-15
3527.38 1.356e-15
3529.12 1.2873e-15
3530.86 1.105e-15
3532.6 1.2646e-15
3534.34 1.333e-15
3536.08 1.2297e-15
3537.82 1.2008e-15
3539.56 1.3174e-15
3541.29 1.4047e-15
3543.03 1.3148e-15
3544.77 1.2814e-15
3546.51 1.4362e-15
3548.25 1.3879e-15
3549.99 1.374e-15
3551.73 1.3308e-15
3553.47 1.2918e-15
3555.21 1.3341e-15
3556.94 1.4746e-15
3558.68 1.442e-15
3560.42 1.4988e-15
3562.16 1.5036e-15
3563.9 1.4025e-15
3565.64 1.5281e-15
3567.38 1.3709e-15
3569.12 1.4041e-15
3570.86 1.383e-15
3572.59 1.3998e-15
3574.33 1.5139e-15
3576.07 1.2986e-15
3577.81 1.4152e-15
3579.55 1.4802e-15
3581.29 1.3513e-15
3583.03 1.5808e-15
3584.77 1.551e-15
3586.5 1.4113e-15
3588.24 1.3894e-15
3589.98 1.4754e-15
3591.72 1.4004e-15
3593.46 1.4123e-15
3595.2 1.5098e-15
3596.94 1.4678e-15
3598.68 1.4833e-15
3600.42 1.5385e-15
3602.15 1.4667e-15
3603.89 1.4645e-15
3605.63 1.4554e-15
3607.37 1.4599e-15
3609.11 1.3642e-15
3610.85 1.3985e-15
3612.59 1.3478e-15
3614.33 1.3047e-15
3616.07 1.3057e-15
3617.8 1.3354e-15
3619.54 1.3954e-15
3621.28 1.2992e-15
3623.02 1.3393e-15
3624.76 1.3735e-15
3626.5 1.353e-15
3628.24 1.2872e-15
3629.98 1.3474e-15
3631.72 1.4605e-15
3633.45 1.4252e-15
3635.19 1.3711e-15
3636.93 1.3218e-15
3638.67 1.2885e-15
3640.41 1.1612e-15
3642.15 1.261e-15
3643.89 1.3403e-15
3645.63 1.2889e-15
3647.37 1.3941e-15
3649.1 1.342e-15
3650.84 1.3076e-15
3652.58 1.4621e-15
3654.32 1.3276e-15
3656.06 1.158e-15
3657.8 1.2882e-15
3659.54 1.3413e-15
3661.28 1.3191e-15
3663.02 1.4134e-15
3664.75 1.3177e-15
3666.49 1.3241e-15
3668.23 1.33e-15
3669.97 1.3781e-15
3671.71 1.3263e-15
3673.45 1.4313e-15
3675.19 1.359e-15
3676.93 1.2795e-15
3678.67 1.3177e-15
3680.4 1.3874e-15
3682.14 1.4582e-15
3683.88 1.4185e-15
3685.62 1.4932e-15
3687.36 1.4872e-15
3689.1 1.5028e-15
3690.84 1.6465e-15
3692.58 1.7328e-15
3694.32 1.7494e-15
3696.05 1.7323e-15
3697.79 1.8301e-15
3699.53 1.8008e-15
3701.27 1.8638e-15
3703.01 2.0272e-15
3704.75 2.1062e-15
3706.49 2.0312e-15
3708.23 2.0424e-15
3709.96 2.147e-15
3711.7 2.1765e-15
3713.44 2.3003e-15
3715.18 2.1681e-15
3716.92 2.2828e-15
3718.66 2.4646e-15
3720.4 2.5948e-15
3722.14 2.5984e-15
3723.88 2.7358e-15
3725.61 2.6005e-15
3727.35 2.7728e-15
3729.09 2.8282e-15
3730.83 2.867e-15
3732.57 2.8535e-15
3734.31 2.8652e-15
3736.05 2.8677e-15
3737.79 2.8728e-15
3739.53 2.9506e-15
3741.26 3.0095e-15
3743.0 2.9284e-15
3744.74 2.9178e-15
3746.48 3.0201e-15
3748.22 2.999e-15
3749.96 2.984e-15
3751.7 3.004e-15
3753.44 3.1428e-15
3755.18 3.1235e-15
3756.91 2.9999e-15
3758.65 3.0788e-15
3760.39 3.0861e-15
3762.13 3.0658e-15
3763.87 3.0869e-15
3765.61 2.9264e-15
3767.35 3.0646e-15
3769.09 3.0686e-15
3770.83 3.1354e-15
3772.56 3.0321e-15
3774.3 3.0523e-15
3776.04 3.0656e-15
3777.78 2.8424e-15
3779.52 2.9277e-15
3781.26 2.9413e-15
3783.0 2.9695e-15
3784.74 3.0555e-15
3786.48 2.9683e-15
3788.21 2.9792e-15
3789.95 2.9425e-15
3791.69 2.8253e-15
3793.43 2.8134e-15
3795.17 2.7863e-15
3796.91 2.6648e-15
3798.65 2.773e-15
3800.39 2.6644e-15
3802.13 2.6208e-15
3803.86 2.5765e-15
3805.6 2.4985e-15
3807.34 2.3103e-15
3809.08 2.2244e-15
3810.82 2.2327e-15
3812.56 2.2383e-15
3814.3 2.1786e-15
3816.04 2.1181e-15
3817.77 1.9586e-15
3819.51 1.9081e-15
3821.25 1.834e-15
3822.99 1.708e-15
3824.73 1.8043e-15
3826.47 1.7141e-15
3828.21 1.674e-15
3829.95 1.7246e-15
3831.69 1.6669e-15
3833.42 1.6184e-15
3835.16 1.5773e-15
3836.9 1.5608e-15
3838.64 1.5068e-15
3840.38 1.425e-15
3842.12 1.5104e-15
3843.86 1.4259e-15
3845.6 1.3504e-15
3847.34 1.542e-15
3849.07 1.4744e-15
3850.81 1.3788e-15
3852.55 1.3342e-15
3854.29 1.1746e-15
3856.03 1.3329e-15
3857.77 1.4661e-15
3859.51 1.401e-15
3861.25 1.4367e-15
3862.99 1.5213e-15
3864.72 1.5792e-15
3866.46 1.4915e-15
3868.2 1.5667e-15
3869.94 1.6121e-15
3871.68 1.5682e-15
3873.42 1.7867e-15
3875.16 1.7956e-15
3876.9 1.7712e-15
3878.64 1.9029e-15
3880.37 1.9536e-15
3882.11 1.9208e-15
3883.85 2.0161e-15
3885.59 2.0271e-15
3887.33 2.1609e-15
3889.07 2.1749e-15
3890.81 2.274e-15
3892.55 2.3054e-15
3894.29 2.3683e-15
3896.02 2.4718e-15
3897.76 2.5781e-15
3899.5 2.6147e-15
3901.24 2.6183e-15
3902.98 2.8126e-15
3904.72 2.9028e-15
3906.46 2.9606e-15
3908.2 3.0842e-15
3909.94 3.2561e-15
3911.67 3.2468e-15
3913.41 3.4559e-15
3915.15 3.4707e-15
3916.89 3.6806e-15
3918.63 3.8021e-15
3920.37 3.9494e-15
3922.11 4.11e-15
3923.85 4.166e-15
3925.58 4.2706e-15
3927.32 4.2802e-15
3929.06 4.393e-15
3930.8 4.4713e-15
3932.54 4.4767e-15
3934.28 4.7404e-15
3936.02 4.8945e-15
3937.76 5.0971e-15
3939.5 5.1057e-15
3941.23 5.017e-15
3942.97 5.3359e-15
3944.71 5.4644e-15
3946.45 5.3403e-15
3948.19 5.3915e-15
3949.93 5.6185e-15
3951.67 5.5716e-15
3953.41 5.6455e-15
3955.15 5.7843e-15
3956.88 5.8563e-15
3958.62 5.8608e-15
3960.36 5.7414e-15
3962.1 5.7469e-15
3963.84 5.8552e-15
3965.58 5.9291e-15
3967.32 5.9046e-15
3969.06 6.0379e-15
3970.8 5.9125e-15
3972.53 6.0751e-15
3974.27 6.1865e-15
3976.01 6.1952e-15
3977.75 6.2754e-15
3979.49 6.4079e-15
3981.23 6.3517e-15
3982.97 6.3771e-15
3984.71 6.3955e-15
3986.45 6.3284e-15
3988.18 6.4234e-15
3989.92 6.4594e-15
3991.66 6.5164e-15
3993.4 6.5936e-15
3995.14 6.5123e-15
3996.88 6.5892e-15
3998.62 6.5753e-15
4000.36 6.5601e-15
4002.1 6.4532e-15
4003.83 6.519e-15
4005.57 6.5563e-15
4007.31 6.5408e-15
4009.05 6.5152e-15
4010.79 6.4614e-15
4012.53 6.3578e-15
4014.27 6.3411e-15
4016.01 6.2471e-15
4017.75 6.3613e-15
4019.48 6.3671e-15
4021.22 6.2421e-15
4022.96 6.2981e-15
4024.7 6.0941e-15
4026.44 5.9102e-15
4028.18 5.8128e-15
4029.92 5.9277e-15
4031.66 5.8258e-15
4033.39 5.7009e-15
4035.13 5.5785e-15
4036.87 5.7758e-15
4038.61 5.7505e-15
4040.35 5.6573e-15
4042.09 5.6524e-15
4043.83 5.7844e-15
4045.57 5.5847e-15
4047.31 5.5184e-15
4049.04 5.5732e-15
4050.78 5.6424e-15
4052.52 5.5805e-15
4054.26 5.6764e-15
4056.0 5.7513e-15
4057.74 5.8155e-15
4059.48 5.8197e-15
4061.22 5.7223e-15
4062.96 5.7605e-15
4064.69 5.8388e-15
4066.43 5.6556e-15
4068.17 5.6401e-15
4069.91 5.7043e-15
4071.65 5.8065e-15
4073.39 5.7432e-15
4075.13 5.7499e-15
4076.87 5.6675e-15
4078.61 5.6074e-15
4080.34 5.6185e-15
4082.08 5.7617e-15
4083.82 5.6591e-15
4085.56 5.5902e-15
4087.3 5.6296e-15
4089.04 5.6583e-15
4090.78 5.6571e-15
4092.52 5.7407e-15
4094.26 5.6432e-15
4095.99 5.5505e-15
4097.73 5.5025e-15
4099.47 5.5722e-15
4101.21 5.6481e-15
4102.95 5.6064e-15
4104.69 5.52e-15
4106.43 5.462e-15
4108.17 5.527e-15
4109.91 5.5528e-15
4111.64 5.5181e-15
4113.38 5.4391e-15
4115.12 5.4926e-15
4116.86 5.5005e-15
4118.6 5.4753e-15
4120.34 5.6517e-15
4122.08 5.561e-15
4123.82 5.3811e-15
4125.56 5.5239e-15
4127.29 5.4269e-15
4129.03 5.3679e-15
4130.77 5.3653e-15
4132.51 5.307e-15
4134.25 5.3366e-15
4135.99 5.4357e-15
4137.73 5.5397e-15
4139.47 5.4271e-15
4141.2 5.3186e-15
4142.94 5.3204e-15
4144.68 5.1994e-15
4146.42 5.1476e-15
4148.16 5.1579e-15
4149.9 5.0789e-15
4151.64 5.0123e-15
4153.38 4.8373e-15
4155.12 4.7826e-15
4156.85 4.6598e-15
4158.59 4.6019e-15
4160.33 4.5191e-15
4162.07 4.3783e-15
4163.81 4.4035e-15
4165.55 4.2834e-15
4167.29 4.1157e-15
4169.03 4.1173e-15
4170.77 4.0992e-15
4172.5 3.9718e-15
4174.24 3.8806e-15
4175.98 3.7083e-15
4177.72 3.6729e-15
4179.46 3.6261e-15
4181.2 3.5954e-15
4182.94 3.5587e-15
4184.68 3.5086e-15
4186.42 3.4748e-15
4188.15 3.6031e-15
4189.89 3.5922e-15
4191.63 3.5263e-15
4193.37 3.5738e-15
4195.11 3.5962e-15
4196.85 3.5136e-15
4198.59 3.4257e-15
4200.33 3.5318e-15
4202.07 3.542e-15
4203.8 3.4219e-15
4205.54 3.3689e-15
4207.28 3.3852e-15
4209.02 3.3483e-15
4210.76 3.2862e-15
4212.5 3.2351e-15
4214.24 3.3305e-15
4215.98 3.3276e-15
4217.72 3.2226e-15
4219.45 3.1664e-15
4221.19 3.1009e-15
4222.93 3.0886e-15
4224.67 3.0682e-15
4226.41 2.937e-15
4228.15 2.9848e-15
4229.89 2.9804e-15
4231.63 2.9262e-15
4233.37 2.9069e-15
4235.1 2.9252e-15
4236.84 2.9691e-15
4238.58 2.9834e-15
4240.32 2.8304e-15
4242.06 2.8616e-15
4243.8 2.8862e-15
4245.54 2.9159e-15
4247.28 2.9316e-15
4249.01 2.8185e-15
4250.75 2.7829e-15
4252.49 2.8825e-15
4254.23 2.8708e-15
4255.97 2.9146e-15
4257.71 2.9766e-15
4259.45 2.9636e-15
4261.19 3.0429e-15
4262.93 2.9812e-15
4264.66 2.9503e-15
4266.4 3.0596e-15
4268.14 3.0251e-15
4269.88 3.048e-15
4271.62 3.0971e-15
4273.36 3.1537e-15
4275.1 3.1562e-15
4276.84 3.2994e-15
4278.58 3.3705e-15
4280.31 3.3428e-15
4282.05 3.4745e-15
4283.79 3.4981e-15
4285.53 3.4768e-15
4287.27 3.7856e-15
4289.01 3.8368e-15
4290.75 3.862e-15
4292.49 3.9929e-15
4294.23 4.1169e-15
4295.96 4.1643e-15
4297.7 4.1864e-15
4299.44 4.2102e-15
4301.18 4.3798e-15
4302.92 4.2338e-15
4304.66 4.1949e-15
4306.4 4.1421e-15
4308.14 4.1897e-15
4309.88 4.1839e-15
4311.61 4.1998e-15
4313.35 4.2987e-15
4315.09 4.1302e-15
4316.83 4.0991e-15
4318.57 4.0614e-15
4320.31 4.101e-15
4322.05 4.1411e-15
4323.79 4.0032e-15
4325.53 4.1404e-15
4327.26 4.1993e-15
4329.0 4.1812e-15
4330.74 4.1185e-15
4332.48 4.1266e-15
4334.22 4.1143e-15
4335.96 4.1767e-15
4337.7 4.2559e-15
4339.44 4.0899e-15
4341.18 4.0875e-15
4342.91 4.2155e-15
4344.65 4.2841e-15
4346.39 4.2095e-15
4348.13 4.3275e-15
4349.87 4.3525e-15
4351.61 4.4167e-15
4353.35 4.3891e-15
4355.09 4.309e-15
4356.82 4.2955e-15
4358.56 4.3383e-15
4360.3 4.3574e-15
4362.04 4.621e-15
4363.78 4.7946e-15
4365.52 4.8177e-15
4367.26 4.7944e-15
4369.0 4.8017e-15
4370.74 4.8342e-15
4372.47 4.8461e-15
4374.21 4.8667e-15
4375.95 4.8836e-15
4377.69 4.8436e-15
4379.43 4.7132e-15
4381.17 4.7336e-15
4382.91 4.8652e-15
4384.65 4.9245e-15
4386.39 4.7731e-15
4388.12 4.7213e-15
4389.86 4.7714e-15
4391.6 4.8098e-15
4393.34 4.7932e-15
4395.08 4.6512e-15
4396.82 4.4793e-15
4398.56 4.3882e-15
4400.3 4.4756e-15
4402.04 4.5747e-15
4403.77 4.471e-15
4405.51 4.4964e-15
4407.25 4.3352e-15
4408.99 4.2432e-15
4410.73 4.173e-15
4412.47 4.4008e-15
4414.21 4.147e-15
4415.95 4.2178e-15
4417.69 4.1661e-15
4419.42 4.0461e-15
4421.16 4.0672e-15
4422.9 4.1255e-15
4424.64 4.0219e-15
4426.38 4.0319e-15
4428.12 4.1001e-15
4429.86 4.0412e-15
4431.6 3.9381e-15
4433.34 3.9086e-15
4435.07 4.0907e-15
4436.81 4.167e-15
4438.55 3.963e-15
4440.29 4.0741e-15
4442.03 4.0992e-15
4443.77 3.9498e-15
4445.51 3.9758e-15
4447.25 4.1189e-15
4448.99 4.0461e-15
4450.72 4.0708e-15
4452.46 4.1594e-15
4454.2 3.943e-15
4455.94 4.0499e-15
4457.68 4.1327e-15
4459.42 3.9899e-15
4461.16 4.0286e-15
4462.9 4.0141e-15
4464.63 4.0656e-15
4466.37 4.0835e-15
4468.11 4.0109e-15
4469.85 3.9951e-15
4471.59 3.9885e-15
4473.33 4.1089e-15
4475.07 4.1387e-15
4476.81 4.0774e-15
4478.55 4.0797e-15
4480.28 4.0957e-15
4482.02 4.041e-15
4483.76 4.0715e-15
4485.5 4.0223e-15
4487.24 4.1728e-15
4488.98 4.3497e-15
4490.72 4.3282e-15
4492.46 4.4386e-15
4494.2 4.5537e-15
4495.93 4.5469e-15
4497.67 4.6395e-15
4499.41 4.8331e-15
4501.15 4.8812e-15
4502.89 5.0135e-15
4504.63 5.027e-15
4506.37 5.0875e-15
4508.11 5.2868e-15
4509.85 5.4585e-15
4511.58 5.5412e-15
4513.32 5.6835e-15
4515.06 5.7387e-15
4516.8 5.7923e-15
4518.54 6.077e-15
4520.28 6.2843e-15
4522.02 6.3932e-15
4523.76 6.4791e-15
4525.5 6.532e-15
4527.23 6.7069e-15
4528.97 6.9242e-15
4530.71 6.9932e-15
4532.45 7.0617e-15
4534.19 7.145e-15
4535.93 7.3959e-15
4537.67 7.3208e-15
4539.41 7.3871e-15
4541.15 7.4203e-15
4542.88 7.2732e-15
4544.62 7.395e-15
4546.36 7.6928e-15
4548.1 7.6323e-15
4549.84 7.684e-15
4551.58 7.5213e-15
4553.32 7.7153e-15
4555.06 7.783e-15
4556.8 7.9634e-15
4558.53 8.0444e-15
4560.27 7.9642e-15
4562.01 7.9668e-15
4563.75 7.8708e-15
4565.49 7.9939e-15
4567.23 8.2098e-15
4568.97 8.221e-15
4570.71 8.0131e-15
4572.44 8.1965e-15
4574.18 8.314e-15
4575.92 8.1801e-15
4577.66 8.2352e-15
4579.4 8.2723e-15
4581.14 8.3124e-15
4582.88 8.5527e-15
4584.62 8.4912e-15
4586.36 8.4643e-15
4588.09 8.8432e-15
4589.83 9.0244e-15
4591.57 9.0131e-15
4593.31 9.1602e-15
4595.05 9.2532e-15
4596.79 9.325e-15
4598.53 9.4824e-15
4600.27 9.5023e-15
4602.01 9.573e-15
4603.74 9.6794e-15
4605.48 9.8005e-15
4607.22 9.7394e-15
4608.96 9.6593e-15
4610.7 9.6616e-15
4612.44 9.7248e-15
4614.18 9.653e-15
4615.92 9.841e-15
4617.66 9.85e-15
4619.39 9.6515e-15
4621.13 9.593e-15
4622.87 9.6247e-15
4624.61 9.658e-15
4626.35 9.5798e-15
4628.09 9.5087e-15
4629.83 9.4401e-15
4631.57 9.5135e-15
4633.31 9.5759e-15
4635.04 9.5937e-15
4636.78 9.5621e-15
4638.52 9.4118e-15
4640.26 9.3433e-15
4642.0 9.4096e-15
4643.74 9.3261e-15
4645.48 9.2448e-15
4647.22 9.2221e-15
4648.96 9.0435e-15
4650.69 8.9443e-15
4652.43 8.8858e-15
4654.17 8.8776e-15
4655.91 8.8257e-15
4657.65 8.7807e-15
4659.39 8.614e-15
4661.13 8.3978e-15
4662.87 8.2375e-15
4664.61 8.0932e-15
4666.34 8.0872e-15
4668.08 8.0167e-15
4669.82 7.951e-15
4671.56 7.6764e-15
4673.3 7.5197e-15
4675.04 7.693e-15
4676.78 7.4851e-15
4678.52 7.3e-15
4680.25 7.2131e-15
4681.99 7.165e-15
4683.73 7.0405e-15
4685.47 6.9779e-15
4687.21 6.7962e-15
4688.95 6.688e-15
4690.69 6.6352e-15
4692.43 6.6515e-15
4694.17 6.6782e-15
4695.9 6.3668e-15
4697.64 6.3268e-15
4699.38 6.3091e-15
4701.12 6.1146e-15
4702.86 5.8867e-15
4704.6 6.0466e-15
4706.34 5.8978e-15
4708.08 5.7858e-15
4709.82 5.8274e-15
4711.55 5.8486e-15
4713.29 5.7558e-15
4715.03 5.6057e-15
4716.77 5.5794e-15
4718.51 5.6159e-15
4720.25 5.5944e-15
4721.99 5.599e-15
4723.73 5.4806e-15
4725.47 5.3883e-15
4727.2 5.2717e-15
4728.94 5.2591e-15
4730.68 5.3719e-15
4732.42 5.3224e-15
4734.16 5.2071e-15
4735.9 5.151e-15
4737.64 4.9989e-15
4739.38 4.9962e-15
4741.12 5.036e-15
4742.85 4.9723e-15
4744.59 4.8501e-15
4746.33 4.7423e-15
4748.07 4.7373e-15
4749.81 4.726e-15
4751.55 4.7801e-15
4753.29 4.6734e-15
4755.03 4.615e-15
4756.77 4.6064e-15
4758.5 4.6929e-15
4760.24 4.671e-15
4761.98 4.6237e-15
4763.72 4.593e-15
4765.46 4.509e-15
4767.2 4.6435e-15
4768.94 4.6178e-15
4770.68 4.6695e-15
4772.42 4.8008e-15
4774.15 4.8432e-15
4775.89 4.9041e-15
4777.63 4.861e-15
4779.37 5.0749e-15
4781.11 5.1757e-15
4782.85 5.2087e-15
4784.59 5.3686e-15
4786.33 5.4545e-15
4788.07 5.6524e-15
4789.8 5.7977e-15
4791.54 5.9067e-15
4793.28 6.0003e-15
4795.02 6.1566e-15
4796.76 6.339e-15
4798.5 6.552e-15
4800.24 6.6408e-15
4801.98 6.7722e-15
4803.71 6.9205e-15
