# wavelength flux
3300.0 4.944082742839922e-14
3301.0 4.9435587559089914e-14
3302.0 4.943034618841833e-14
3303.0 4.9425103316390616e-14
3304.0 4.941985894301333e-14
3305.0 4.9414613068293383e-14
3306.0 4.940936569223809e-14
3307.0 4.940411681485513e-14
3308.0 4.939886643615254e-14
3309.0 4.939361455613876e-14
3310.0 4.9388361174822605e-14
3311.0 4.9383106292213254e-14
3312.0 4.9377849908320285e-14
3313.0 4.9372592023153644e-14
3314.0 4.9367332636723636e-14
3315.0 4.936207174904099e-14
3316.0 4.9356809360116774e-14
3317.0 4.9351545469962457e-14
3318.0 4.934628007858988e-14
3319.0 4.934101318601125e-14
3320.0 4.933574479223919e-14
3321.0 4.933047489728668e-14
3322.0 4.932520350116708e-14
3323.0 4.931993060389412e-14
3324.0 4.9314656205481953e-14
3325.0 4.930938030594505e-14
3326.0 4.9304102905298335e-14
3327.0 4.929882400355705e-14
3328.0 4.9293543600736843e-14
3329.0 4.928826169685377e-14
3330.0 4.9282978291924244e-14
3331.0 4.9277693385965046e-14
3332.0 4.927240697899336e-14
3333.0 4.9267119071026754e-14
3334.0 4.926182966208317e-14
3335.0 4.925653875218096e-14
3336.0 4.92512463413388e-14
3337.0 4.9245952429575804e-14
3338.0 4.9240657016911457e-14
3339.0 4.923536010336562e-14
3340.0 4.923006168895855e-14
3341.0 4.922476177371087e-14
3342.0 4.921946035764359e-14
3343.0 4.9214157440778134e-14
3344.0 4.920885302313629e-14
3345.0 4.920354710474022e-14
3346.0 4.919823968561248e-14
3347.0 4.9192930765776026e-14
3348.0 4.9187620345254185e-14
3349.0 4.918230842407068e-14
3350.0 4.9176995002249613e-14
3351.0 4.9171680079815477e-14
3352.0 4.916636365679313e-14
3353.0 4.916104573320786e-14
3354.0 4.915572630908531e-14
3355.0 4.915040538445153e-14
3356.0 4.9145082959332926e-14
3357.0 4.9139759033756335e-14
3358.0 4.913443360774895e-14
3359.0 4.9129106681338367e-14
3360.0 4.9123778254552563e-14
3361.0 4.911844832741989e-14
3362.0 4.911311689996913e-14
3363.0 4.9107783972229427e-14
3364.0 4.91024495442303e-14
3365.0 4.909711361600169e-14
3366.0 4.9091776187573905e-14
3367.0 4.908643725897766e-14
3368.0 4.908109683024405e-14
3369.0 4.9075754901404546e-14
3370.0 4.9070411472491023e-14
3371.0 4.9065066543535777e-14
3372.0 4.905972011457144e-14
3373.0 4.905437218563108e-14
3374.0 4.904902275674812e-14
3375.0 4.9043671827956404e-14
3376.0 4.9038319399290143e-14
3377.0 4.9032965470783974e-14
3378.0 4.902761004247289e-14
3379.0 4.90222531143923e-14
3380.0 4.9016894686577976e-14
3381.0 4.901153475906614e-14
3382.0 4.900617333189335e-14
3383.0 4.900081040509659e-14
3384.0 4.8995445978713206e-14
3385.0 4.8990080052780985e-14
3386.0 4.8984712627338063e-14
3387.0 4.897934370242299e-14
3388.0 4.8973973278074715e-14
3389.0 4.896860135433256e-14
3390.0 4.8963227931236263e-14
3391.0 4.895785300882596e-14
3392.0 4.8952476587142165e-14
3393.0 4.89470986662258e-14
3394.0 4.8941719246118156e-14
3395.0 4.893633832686098e-14
3396.0 4.893095590849635e-14
3397.0 4.892557199106676e-14
3398.0 4.892018657461511e-14
3399.0 4.89147996591847e-14
3400.0 4.8909411244819216e-14
3401.0 4.890402133156274e-14
3402.0 4.8898629919459775e-14
3403.0 4.889323700855517e-14
3404.0 4.8887842598894217e-14
3405.0 4.888244669052261e-14
3406.0 4.887704928348641e-14
3407.0 4.887165037783208e-14
3408.0 4.886624997360649e-14
3409.0 4.886084807085692e-14
3410.0 4.885544466963103e-14
3411.0 4.885003976997689e-14
3412.0 4.884463337194297e-14
3413.0 4.8839225475578135e-14
3414.0 4.883381608093163e-14
3415.0 4.8828405188053145e-14
3416.0 4.8822992796992734e-14
3417.0 4.881757890780086e-14
3418.0 4.881216352052838e-14
3419.0 4.8806746635226566e-14
3420.0 4.8801328251947095e-14
3421.0 4.8795908370742016e-14
3422.0 4.879048699166382e-14
3423.0 4.878506411476536e-14
3424.0 4.877963974009989e-14
3425.0 4.877421386772111e-14
3426.0 4.876878649768309e-14
3427.0 4.8763357630040297e-14
3428.0 4.875792726484761e-14
3429.0 4.875249540216033e-14
3430.0 4.874706204203414e-14
3431.0 4.874162718452509e-14
3432.0 4.87361908296897e-14
3433.0 4.873075297758486e-14
3434.0 4.872531362826786e-14
3435.0 4.8719872781796413e-14
3436.0 4.871443043822863e-14
3437.0 4.8708986597623005e-14
3438.0 4.8703541260038446e-14
3439.0 4.869809442553428e-14
3440.0 4.869264609417023e-14
3441.0 4.868719626600642e-14
3442.0 4.868174494110339e-14
3443.0 4.867629211952206e-14
3444.0 4.8670837801323806e-14
3445.0 4.866538198657035e-14
3446.0 4.865992467532386e-14
3447.0 4.8654465867646883e-14
3448.0 4.864900556360239e-14
3449.0 4.864354376325377e-14
3450.0 4.863808046666479e-14
3451.0 4.863261567389965e-14
3452.0 4.8627149385022926e-14
3453.0 4.862168160009962e-14
3454.0 4.861621231919516e-14
3455.0 4.861074154237536e-14
3456.0 4.8605269269706426e-14
3457.0 4.859979550125501e-14
3458.0 4.859432023708815e-14
3459.0 4.858884347727329e-14
3460.0 4.858336522187829e-14
3461.0 4.857788547097141e-14
3462.0 4.857240422462134e-14
3463.0 4.856692148289714e-14
3464.0 4.856143724586835e-14
3465.0 4.855595151360483e-14
3466.0 4.8550464286176923e-14
3467.0 4.854497556365533e-14
3468.0 4.853948534611119e-14
3469.0 4.853399363361606e-14
3470.0 4.852850042624191e-14
3471.0 4.8523005724061056e-14
3472.0 4.851750952714632e-14
3473.0 4.851201183557085e-14
3474.0 4.850651264940829e-14
3475.0 4.8501011968732623e-14
3476.0 4.84955097936183e-14
3477.0 4.849000612414012e-14
3478.0 4.848450096037333e-14
3479.0 4.847899430239361e-14
3480.0 4.8473486150277035e-14
3481.0 4.846797650410007e-14
3482.0 4.846246536393964e-14
3483.0 4.8456952729873007e-14
3484.0 4.8451438601977943e-14
3485.0 4.844592298033256e-14
3486.0 4.844040586501541e-14
3487.0 4.843488725610548e-14
3488.0 4.8429367153682103e-14
3489.0 4.842384555782511e-14
3490.0 4.84183224686147e-14
3491.0 4.8412797886131494e-14
3492.0 4.840727181045652e-14
3493.0 4.840174424167124e-14
3494.0 4.8396215179857504e-14
3495.0 4.839068462509762e-14
3496.0 4.8385152577474264e-14
3497.0 4.837961903707055e-14
3498.0 4.8374084003970024e-14
3499.0 4.836854747825662e-14
3500.0 4.83630094600147e-14
3501.0 4.835746994932904e-14
3501.02 3.6039e-14
3502.76 3.5316e-14
3504.5 3.5026e-14
3506.24 3.464e-14
3507.98 3.4421e-14
3509.71 3.4686e-14
3511.45 3.4625e-14
3513.19 3.5328e-14
3514.93 3.5642e-14
3516.67 3.564e-14
3518.41 3.5928e-14
3520.15 3.6785e-14
3521.89 3.602e-14
3523.63 3.6156e-14
3525.36 3.7439e-14
3527.1 3.6993e-14
3528.84 3.7215e-14
3530.58 3.8063e-14
3532.32 3.8668e-14
3534.06 3.8456e-14
3535.8 3.8415e-14
3537.54 3.8718e-14
3539.28 3.9214e-14
3541.01 3.8989e-14
3542.75 3.9718e-14
3544.49 3.9599e-14
3546.23 4.0558e-14
3547.97 4.032e-14
3549.71 4.0304e-14
3551.45 4.093e-14
3553.19 4.0536e-14
3554.92 4.1285e-14
3556.66 4.1817e-14
3558.4 4.0924e-14
3560.14 4.0954e-14
3561.88 4.1359e-14
3563.62 4.1585e-14
3565.36 4.0754e-14
3567.1 4.0467e-14
3568.84 4.0959e-14
3570.57 4.1115e-14
3572.31 4.0845e-14
3574.05 4.1133e-14
3575.79 4.1446e-14
3577.53 4.1682e-14
3579.27 4.2067e-14
3581.01 4.1595e-14
3582.75 4.1183e-14
3584.49 4.1765e-14
3586.22 4.1625e-14
3587.96 4.0869e-14
3589.7 4.0778e-14
3591.44 4.0581e-14
3593.18 4.0005e-14
3594.92 4.0112e-14
3596.66 3.9951e-14
3598.4 3.9465e-14
3600.13 3.8987e-14
3601.87 3.8733e-14
3603.61 3.8401e-14
3605.35 3.8215e-14
3607.09 3.7766e-14
3608.83 3.7881e-14
3610.57 3.7225e-14
3612.31 3.7313e-14
3614.05 3.7035e-14
3615.78 3.6539e-14
3617.52 3.7184e-14
3619.26 3.6502e-14
3621.0 3.6538e-14
3622.74 3.6699e-14
3624.48 3.6311e-14
3626.22 3.5642e-14
3627.96 3.5899e-14
3629.7 3.5462e-14
3631.43 3.5453e-14
3633.17 3.5363e-14
3634.91 3.5535e-14
3636.65 3.454e-14
3638.39 3.4765e-14
3640.13 3.4654e-14
3641.87 3.4724e-14
3643.61 3.5129e-14
3645.34 3.5049e-14
3647.08 3.5548e-14
3648.82 3.5558e-14
3650.56 3.5047e-14
3652.3 3.5695e-14
3654.04 3.5566e-14
3655.78 3.6104e-14
3657.52 3.6012e-14
3659.26 3.6136e-14
3660.99 3.576e-14
3662.73 3.5575e-14
3664.47 3.6076e-14
3666.21 3.6679e-14
3667.95 3.7472e-14
3669.69 3.8209e-14
3671.43 3.8726e-14
3673.17 3.9253e-14
3674.91 3.9723e-14
3676.64 3.9576e-14
3678.38 4.0248e-14
3680.12 4.0483e-14
3681.86 4.1013e-14
3683.6 4.1636e-14
3685.34 4.2125e-14
3687.08 4.3227e-14
3688.82 4.4487e-14
3690.55 4.4957e-14
3692.29 4.6379e-14
3694.03 4.7303e-14
3695.77 4.774e-14
3697.51 4.7653e-14
3699.25 4.8431e-14
3700.99 4.9647e-14
3702.73 5.0535e-14
3704.47 5.1314e-14
3706.2 5.1413e-14
3707.94 5.2148e-14
3709.68 5.2532e-14
3711.42 5.3257e-14
3713.16 5.4087e-14
3714.9 5.3723e-14
3716.64 5.4193e-14
3718.38 5.4257e-14
3720.12 5.4609e-14
3721.85 5.4943e-14
3723.59 5.4885e-14
3725.33 5.5205e-14
3727.07 5.546e-14
3728.81 5.4736e-14
3730.55 5.4352e-14
3732.29 5.4179e-14
3734.03 5.3667e-14
3735.76 5.3579e-14
3737.5 5.242e-14
3739.24 5.2077e-14
3740.98 5.1663e-14
3742.72 5.1421e-14
3744.46 5.0106e-14
3746.2 4.981e-14
3747.94 4.9367e-14
3749.68 4.9156e-14
3751.41 4.8814e-14
3753.15 4.8225e-14
3754.89 4.7687e-14
3756.63 4.7088e-14
3758.37 4.6738e-14
3760.11 4.5593e-14
3761.85 4.5342e-14
3763.59 4.4836e-14
3765.33 4.4345e-14
3767.06 4.3899e-14
3768.8 4.2928e-14
3770.54 4.2137e-14
3772.28 4.2212e-14
3774.02 4.1472e-14
3775.76 4.068e-14
3777.5 4.0784e-14
3779.24 4.1219e-14
3780.97 4.0852e-14
3782.71 4.0196e-14
3784.45 3.9827e-14
3786.19 3.9551e-14
3787.93 3.9573e-14
3789.67 3.9428e-14
3791.41 3.9226e-14
3793.15 3.8757e-14
3794.89 3.8767e-14
3796.62 3.8723e-14
3798.36 3.8519e-14
3800.1 3.8312e-14
3801.84 3.7984e-14
3803.58 3.6704e-14
3805.32 3.6647e-14
3807.06 3.6835e-14
3808.8 3.6464e-14
3810.54 3.7098e-14
3812.27 3.694e-14
3814.01 3.6603e-14
3815.75 3.7159e-14
3817.49 3.713e-14
3819.23 3.7402e-14
3820.97 3.7847e-14
3822.71 3.8292e-14
3824.45 3.8236e-14
3826.18 3.7942e-14
3827.92 3.7558e-14
3829.66 3.7527e-14
3831.4 3.7554e-14
3833.14 3.7513e-14
3834.88 3.7464e-14
3836.62 3.6854e-14
3838.36 3.6526e-14
3840.1 3.6067e-14
3841.83 3.6163e-14
3843.57 3.6629e-14
3845.31 3.5871e-14
3847.05 3.5848e-14
3848.79 3.6206e-14
3850.53 3.5831e-14
3852.27 3.5991e-14
3854.01 3.6136e-14
3855.75 3.6626e-14
3857.48 3.7236e-14
3859.22 3.7385e-14
3860.96 3.7413e-14
3862.7 3.7651e-14
3864.44 3.7262e-14
3866.18 3.7109e-14
3867.92 3.7838e-14
3869.66 3.768e-14
3871.39 3.7839e-14
3873.13 3.8617e-14
3874.87 3.9179e-14
3876.61 3.9221e-14
3878.35 3.9757e-14
3880.09 4.0252e-14
3881.83 4.0464e-14
3883.57 4.0614e-14
3885.31 4.0523e-14
3887.04 4.1223e-14
3888.78 4.2113e-14
3890.52 4.2804e-14
3892.26 4.3502e-14
3894.0 4.3431e-14
3895.74 4.3989e-14
3897.48 4.501e-14
3899.22 4.5471e-14
3900.96 4.5982e-14
3902.69 4.7235e-14
3904.43 4.7844e-14
3906.17 4.9055e-14
3907.91 4.9649e-14
3909.65 4.9678e-14
3911.39 5.0313e-14
3913.13 5.127e-14
3914.87 5.1245e-14
3916.61 5.1208e-14
3918.34 5.1896e-14
3920.08 5.2133e-14
3921.82 5.3018e-14
3923.56 5.3323e-14
3925.3 5.3246e-14
3927.04 5.3963e-14
3928.78 5.4007e-14
3930.52 5.334e-14
3932.25 5.3209e-14
3933.99 5.3353e-14
3935.73 5.3424e-14
3937.47 5.3792e-14
3939.21 5.4141e-14
3940.95 5.4169e-14
3942.69 5.4272e-14
3944.43 5.4711e-14
3946.17 5.4439e-14
3947.9 5.4699e-14
3949.64 5.4941e-14
3951.38 5.5323e-14
3953.12 5.5051e-14
3954.86 5.5021e-14
3956.6 5.482e-14
3958.34 5.454e-14
3960.08 5.5329e-14
3961.82 5.5825e-14
3963.55 5.507e-14
3965.29 5.4506e-14
3967.03 5.4824e-14
3968.77 5.5381e-14
3970.51 5.493e-14
3972.25 5.4625e-14
3973.99 5.5332e-14
3975.73 5.5807e-14
3977.46 5.5321e-14
3979.2 5.5727e-14
3980.94 5.6271e-14
3982.68 5.5912e-14
3984.42 5.6256e-14
3986.16 5.597e-14
3987.9 5.6367e-14
3989.64 5.6377e-14
3991.38 5.6419e-14
3993.11 5.568e-14
3994.85 5.5543e-14
3996.59 5.5902e-14
3998.33 5.5356e-14
4000.07 5.5076e-14
4001.81 5.4427e-14
4003.55 5.5043e-14
4005.29 5.5115e-14
4007.03 5.4528e-14
4008.76 5.3943e-14
4010.5 5.3182e-14
4012.24 5.3096e-14
4013.98 5.2479e-14
4015.72 5.2144e-14
4017.46 5.044e-14
4019.2 5.0483e-14
4020.94 5.0185e-14
4022.67 4.9333e-14
4024.41 4.861e-14
4026.15 4.8216e-14
4027.89 4.7692e-14
4029.63 4.7107e-14
4031.37 4.6566e-14
4033.11 4.6649e-14
4034.85 4.6315e-14
4036.59 4.6047e-14
4038.32 4.5921e-14
4040.06 4.6075e-14
4041.8 4.6909e-14
4043.54 4.653e-14
4045.28 4.6123e-14
4047.02 4.6406e-14
4048.76 4.6601e-14
4050.5 4.652e-14
4052.24 4.6451e-14
4053.97 4.6691e-14
4055.71 4.7175e-14
4057.45 4.7062e-14
4059.19 4.7547e-14
4060.93 4.798e-14
4062.67 4.84e-14
4064.41 4.8365e-14
4066.15 4.8576e-14
4067.88 4.8577e-14
4069.62 4.9152e-14
4071.36 4.9561e-14
4073.1 4.9547e-14
4074.84 4.9562e-14
4076.58 4.9599e-14
4078.32 4.9974e-14
4080.06 5.0133e-14
4081.8 5.0873e-14
4083.53 5.084e-14
4085.27 5.1554e-14
4087.01 5.1414e-14
4088.75 5.0693e-14
4090.49 5.0821e-14
4092.23 5.0971e-14
4093.97 5.1389e-14
4095.71 5.187e-14
4097.45 5.186e-14
4099.18 5.1715e-14
4100.92 5.171e-14
4102.66 5.1942e-14
4104.4 5.2204e-14
4106.14 5.2026e-14
4107.88 5.1829e-14
4109.62 5.1644e-14
4111.36 5.1781e-14
4113.09 5.113e-14
4114.83 5.154e-14
4116.57 5.1771e-14
4118.31 5.1569e-14
4120.05 5.1694e-14
4121.79 5.1341e-14
4123.53 5.1152e-14
4125.27 5.1174e-14
4127.01 5.0442e-14
4128.74 5.1152e-14
4130.48 5.0704e-14
4132.22 5.0396e-14
4133.96 4.9948e-14
4135.7 4.9897e-14
4137.44 4.8749e-14
4139.18 4.8584e-14
4140.92 4.8328e-14
4142.66 4.7441e-14
4144.39 4.7044e-14
4146.13 4.6525e-14
4147.87 4.5508e-14
4149.61 4.5015e-14
4151.35 4.4082e-14
4153.09 4.3545e-14
4154.83 4.2712e-14
4156.57 4.2445e-14
4158.3 4.1344e-14
4160.04 4.1373e-14
4161.78 4.1174e-14
4163.52 4.0864e-14
4165.26 4.0295e-14
4167.0 4.0181e-14
4168.74 4.048e-14
4170.48 3.987e-14
4172.22 3.972e-14
4173.95 3.9582e-14
4175.69 3.9308e-14
4177.43 3.9455e-14
4179.17 3.9199e-14
4180.91 3.9355e-14
4182.65 3.9639e-14
4184.39 3.9479e-14
4186.13 3.9583e-14
4187.87 3.9312e-14
4189.6 3.9398e-14
4191.34 3.9726e-14
4193.08 3.9601e-14
4194.82 3.9805e-14
4196.56 3.9852e-14
4198.3 4.0315e-14
4200.04 4.0415e-14
4201.78 4.0359e-14
4203.51 4.0983e-14
4205.25 4.0858e-14
4206.99 4.0945e-14
4208.73 4.1067e-14
4210.47 4.1628e-14
4212.21 4.206e-14
4213.95 4.199e-14
4215.69 4.1689e-14
4217.43 4.1407e-14
4219.16 4.1845e-14
4220.9 4.1843e-14
4222.64 4.2189e-14
4224.38 4.1894e-14
4226.12 4.1907e-14
4227.86 4.1515e-14
4229.6 4.1604e-14
4231.34 4.1318e-14
4233.08 4.1118e-14
4234.81 4.1471e-14
4236.55 4.12e-14
4238.29 4.0726e-14
4240.03 4.1194e-14
4241.77 4.1131e-14
4243.51 4.1103e-14
4245.25 4.0553e-14
4246.99 3.9926e-14
4248.72 4.0112e-14
4250.46 4.0145e-14
4252.2 3.995e-14
4253.94 4.0409e-14
4255.68 4.0163e-14
4257.42 4.0445e-14
4259.16 4.0721e-14
4260.9 4.0465e-14
4262.64 4.0574e-14
4264.37 4.1121e-14
4266.11 4.1649e-14
4267.85 4.189e-14
4269.59 4.2524e-14
4271.33 4.2716e-14
4273.07 4.2598e-14
4274.81 4.2902e-14
4276.55 4.3438e-14
4278.29 4.3416e-14
4280.02 4.3819e-14
4281.76 4.4093e-14
4283.5 4.4674e-14
4285.24 4.4607e-14
4286.98 4.4973e-14
4288.72 4.5201e-14
4290.46 4.5529e-14
4292.2 4.5526e-14
4293.93 4.5859e-14
4295.67 4.6244e-14
4297.41 4.5811e-14
4299.15 4.5645e-14
4300.89 4.6109e-14
4302.63 4.593e-14
4304.37 4.6312e-14
4306.11 4.6166e-14
4307.85 4.7086e-14
4309.58 4.672e-14
4311.32 4.609e-14
4313.06 4.6395e-14
4314.8 4.5871e-14
4316.54 4.6292e-14
4318.28 4.648e-14
4320.02 4.5839e-14
4321.76 4.642e-14
4323.5 4.6128e-14
4325.23 4.6293e-14
4326.97 4.6637e-14
4328.71 4.6476e-14
4330.45 4.6764e-14
4332.19 4.7096e-14
4333.93 4.7116e-14
4335.67 4.7609e-14
4337.41 4.8101e-14
4339.14 4.7818e-14
4340.88 4.8087e-14
4342.62 4.8502e-14
4344.36 4.8635e-14
4346.1 4.7992e-14
4347.84 4.793e-14
4349.58 4.7537e-14
4351.32 4.7603e-14
4353.06 4.7815e-14
4354.79 4.8187e-14
4356.53 4.7325e-14
4358.27 4.756e-14
4360.01 4.7648e-14
4361.75 4.8143e-14
4363.49 4.7518e-14
4365.23 4.7208e-14
4366.97 4.6907e-14
4368.71 4.6903e-14
4370.44 4.6779e-14
4372.18 4.5628e-14
4373.92 4.5686e-14
4375.66 4.4969e-14
4377.4 4.4448e-14
4379.14 4.4548e-14
4380.88 4.3288e-14
4382.62 4.2464e-14
4384.35 4.1532e-14
4386.09 4.1345e-14
4387.83 4.0445e-14
4389.57 3.9446e-14
4391.31 3.9362e-14
4393.05 3.8387e-14
4394.79 3.7695e-14
4396.53 3.7645e-14
4398.27 3.6597e-14
4400.0 3.6191e-14
4401.74 3.5962e-14
4403.48 3.5441e-14
4405.22 3.5109e-14
4406.96 3.4924e-14
4408.7 3.463e-14
4410.44 3.4317e-14
4412.18 3.3871e-14
4413.92 3.344e-14
4415.65 3.3567e-14
4417.39 3.3443e-14
4419.13 3.3536e-14
4420.87 3.388e-14
4422.61 3.383e-14
4424.35 3.3854e-14
4426.09 3.43e-14
4427.83 3.4661e-14
4429.56 3.4694e-14
4431.3 3.4853e-14
4433.04 3.544e-14
4434.78 3.5896e-14
4436.52 3.622e-14
4438.26 3.6183e-14
4440.0 3.7283e-14
4441.74 3.7965e-14
4443.48 3.7965e-14
4445.21 3.7399e-14
4446.95 3.7906e-14
4448.69 3.8532e-14
4450.43 3.8948e-14
4452.17 3.9205e-14
4453.91 3.9649e-14
4455.65 4.0115e-14
4457.39 4.0191e-14
4459.13 4.032e-14
4460.86 4.0504e-14
4462.6 4.1247e-14
4464.34 4.1257e-14
4466.08 4.1367e-14
4467.82 4.1963e-14
4469.56 4.2125e-14
4471.3 4.1602e-14
4473.04 4.1806e-14
4474.77 4.2008e-14
4476.51 4.2062e-14
4478.25 4.2038e-14
4479.99 4.2051e-14
4481.73 4.2016e-14
4483.47 4.216e-14
4485.21 4.2332e-14
4486.95 4.2499e-14
4488.69 4.259e-14
4490.42 4.2921e-14
4492.16 4.3335e-14
4493.9 4.418e-14
4495.64 4.4507e-14
4497.38 4.4924e-14
4499.12 4.4986e-14
4500.86 4.5387e-14
4502.6 4.5238e-14
4504.34 4.5714e-14
4506.07 4.5455e-14
4507.81 4.5773e-14
4509.55 4.6325e-14
4511.29 4.6241e-14
4513.03 4.6001e-14
4514.77 4.6248e-14
4516.51 4.6289e-14
4518.25 4.6505e-14
4519.98 4.656e-14
4521.72 4.6441e-14
4523.46 4.6951e-14
4525.2 4.7238e-14
4526.94 4.7091e-14
4528.68 4.7271e-14
4530.42 4.7177e-14
4532.16 4.7491e-14
4533.9 4.7185e-14
4535.63 4.7507e-14
4537.37 4.8127e-14
4539.11 4.838e-14
4540.85 4.814e-14
4542.59 4.8256e-14
4544.33 4.8651e-14
4546.07 4.8945e-14
4547.81 4.9124e-14
4549.55 4.9032e-14
4551.28 4.9367e-14
4553.02 4.9928e-14
4554.76 4.9736e-14
4556.5 5.0012e-14
4558.24 5.0058e-14
4559.98 5.0713e-14
4561.72 5.0811e-14
4563.46 5.0843e-14
4565.19 5.117e-14
4566.93 5.1526e-14
4568.67 5.1316e-14
4570.41 5.1645e-14
4572.15 5.1757e-14
4573.89 5.2268e-14
4575.63 5.2117e-14
4577.37 5.2969e-14
4579.11 5.2808e-14
4580.84 5.2958e-14
4582.58 5.3668e-14
4584.32 5.3241e-14
4586.06 5.3295e-14
4587.8 5.4385e-14
4589.54 5.4659e-14
4591.28 5.4211e-14
4593.02 5.4767e-14
4594.76 5.5002e-14
4596.49 5.4727e-14
4598.23 5.521e-14
4599.97 5.4748e-14
4601.71 5.5059e-14
4603.45 5.5529e-14
4605.19 5.5249e-14
4606.93 5.4805e-14
4608.67 5.5475e-14
4610.4 5.4712e-14
4612.14 5.4181e-14
4613.88 5.437e-14
4615.62 5.4113e-14
4617.36 5.424e-14
4619.1 5.3884e-14
4620.84 5.3778e-14
4622.58 5.277e-14
4624.32 5.2442e-14
4626.05 5.3396e-14
4627.79 5.2552e-14
4629.53 5.1782e-14
4631.27 5.1598e-14
4633.01 5.1047e-14
4634.75 5.1148e-14
4636.49 5.1168e-14
4638.23 5.0935e-14
4639.97 5.0597e-14
4641.7 4.9994e-14
4643.44 5.0206e-14
4645.18 4.9453e-14
4646.92 4.9175e-14
4648.66 4.9169e-14
4650.4 4.9214e-14
4652.14 4.9082e-14
4653.88 4.8809e-14
4655.61 4.8417e-14
4657.35 4.8155e-14
4659.09 4.7514e-14
4660.83 4.701e-14
4662.57 4.6911e-14
4664.31 4.6774e-14
4666.05 4.6622e-14
4667.79 4.6206e-14
4669.53 4.6137e-14
4671.26 4.5735e-14
4673.0 4.5294e-14
4674.74 4.4891e-14
4676.48 4.4832e-14
4678.22 4.3851e-14
4679.96 4.3884e-14
4681.7 4.296e-14
4683.44 4.1957e-14
4685.18 4.1896e-14
4686.91 4.157e-14
4688.65 4.0431e-14
4690.39 4.0051e-14
4692.13 4.0087e-14
4693.87 3.945e-14
4695.61 3.8908e-14
4697.35 3.8589e-14
4699.09 3.8045e-14
4700.82 3.7568e-14
4702.56 3.6991e-14
4704.3 3.6666e-14
4706.04 3.6438e-14
4707.78 3.606e-14
4709.52 3.5232e-14
4711.26 3.4691e-14
4713.0 3.475e-14
4714.74 3.5161e-14
4716.47 3.5104e-14
4718.21 3.4551e-14
4719.95 3.4364e-14
4721.69 3.4255e-14
4723.43 3.4718e-14
4725.17 3.4285e-14
4726.91 3.4061e-14
4728.65 3.3946e-14
4730.39 3.3877e-14
4732.12 3.3804e-14
4733.86 3.4247e-14
4735.6 3.4554e-14
4737.34 3.4626e-14
4739.08 3.4503e-14
4740.82 3.4924e-14
4742.56 3.5067e-14
4744.3 3.5238e-14
4746.03 3.5357e-14
4747.77 3.5841e-14
4749.51 3.6217e-14
4751.25 3.5959e-14
4752.99 3.6757e-14
4754.73 3.7254e-14
4756.47 3.8264e-14
4758.21 3.9215e-14
4759.95 3.9429e-14
4761.68 3.9564e-14
4763.42 3.9552e-14
4765.16 3.9903e-14
4766.9 3.9729e-14
4768.64 3.9739e-14
4770.38 4.0218e-14
4772.12 4.0703e-14
4773.86 4.0926e-14
4775.6 4.1331e-14
4777.33 4.1619e-14
4779.07 4.1713e-14
4780.81 4.2092e-14
4782.55 4.2441e-14
4784.29 4.27e-14
4786.03 4.2798e-14
4787.77 4.3175e-14
4789.51 4.363e-14
4791.25 4.3842e-14
4792.98 4.4143e-14
4794.72 4.4648e-14
4796.46 4.5183e-14
4798.2 4.5586e-14
4799.94 4.5683e-14
