# wavelength flux
3300.0 1.161298668136501e-14
3301.0 1.161279314188683e-14
3302.0 1.161259959984807e-14
3303.0 1.1612406055240466e-14
3304.0 1.161221250805574e-14
3305.0 1.1612018958285613e-14
3306.0 1.1611825405921782e-14
3307.0 1.1611631850955934e-14
3308.0 1.161143829337976e-14
3309.0 1.1611244733184914e-14
3310.0 1.1611051170363055e-14
3311.0 1.1610857604905824e-14
3312.0 1.1610664036804854e-14
3313.0 1.1610470466051762e-14
3314.0 1.1610276892638156e-14
3315.0 1.1610083316555623e-14
3316.0 1.1609889737795754e-14
3317.0 1.1609696156350114e-14
3318.0 1.1609502572210259e-14
3319.0 1.160930898536774e-14
3320.0 1.1609115395814085e-14
3321.0 1.160892180354082e-14
3322.0 1.1608728208539448e-14
3323.0 1.1608534610801471e-14
3324.0 1.1608341010318371e-14
3325.0 1.1608147407081621e-14
3326.0 1.1607953801082677e-14
3327.0 1.1607760192312994e-14
3328.0 1.1607566580763999e-14
3329.0 1.1607372966427121e-14
3330.0 1.1607179349293766e-14
3331.0 1.1606985729355337e-14
3332.0 1.1606792106603214e-14
3333.0 1.1606598481028776e-14
3334.0 1.160640485262338e-14
3335.0 1.1606211221378378e-14
3336.0 1.16060175872851e-14
3337.0 1.1605823950334873e-14
3338.0 1.1605630310519009e-14
3339.0 1.1605436667828804e-14
3340.0 1.1605243022255546e-14
3341.0 1.1605049373790509e-14
3342.0 1.1604855722424948e-14
3343.0 1.1604662068150117e-14
3344.0 1.1604468410957252e-14
3345.0 1.160427475083757e-14
3346.0 1.1604081087782286e-14
3347.0 1.1603887421782595e-14
3348.0 1.1603693752829685e-14
3349.0 1.1603500080914727e-14
3350.0 1.1603306406028876e-14
3351.0 1.1603112728163281e-14
3352.0 1.1602919047309082e-14
3353.0 1.1602725363457397e-14
3354.0 1.1602531676599326e-14
3355.0 1.1602337986725976e-14
3356.0 1.1602144293828422e-14
3357.0 1.1601950597897736e-14
3358.0 1.1601756898924978e-14
3359.0 1.1601563196901189e-14
3360.0 1.1601369491817402e-14
3361.0 1.160117578366463e-14
3362.0 1.1600982072433887e-14
3363.0 1.1600788358116158e-14
3364.0 1.1600594640702426e-14
3365.0 1.1600400920183653e-14
3366.0 1.1600207196550797e-14
3367.0 1.1600013469794797e-14
3368.0 1.1599819739906582e-14
3369.0 1.1599626006877058e-14
3370.0 1.1599432270697139e-14
3371.0 1.1599238531357698e-14
3372.0 1.1599044788849622e-14
3373.0 1.1598851043163767e-14
3374.0 1.1598657294290983e-14
3375.0 1.1598463542222106e-14
3376.0 1.1598269786947952e-14
3377.0 1.1598076028459337e-14
3378.0 1.1597882266747055e-14
3379.0 1.1597688501801885e-14
3380.0 1.1597494733614599e-14
3381.0 1.159730096217595e-14
3382.0 1.1597107187476684e-14
3383.0 1.1596913409507528e-14
3384.0 1.1596719628259195e-14
3385.0 1.1596525843722392e-14
3386.0 1.1596332055887804e-14
3387.0 1.159613826474611e-14
3388.0 1.1595944470287965e-14
3389.0 1.1595750672504027e-14
3390.0 1.1595556871384923e-14
3391.0 1.1595363066921277e-14
3392.0 1.1595169259103699e-14
3393.0 1.1594975447922782e-14
3394.0 1.159478163336911e-14
3395.0 1.1594587815433243e-14
3396.0 1.159439399410574e-14
3397.0 1.1594200169377143e-14
3398.0 1.1594006341237971e-14
3399.0 1.1593812509678739e-14
3400.0 1.1593618674689953e-14
3401.0 1.1593424836262091e-14
3402.0 1.1593230994385628e-14
3403.0 1.1593037149051021e-14
3404.0 1.1592843300248709e-14
3405.0 1.1592649447969135e-14
3406.0 1.1592455592202705e-14
3407.0 1.1592261732939822e-14
3408.0 1.159206787017088e-14
3409.0 1.1591874003886249e-14
3410.0 1.1591680134076298e-14
3411.0 1.1591486260731362e-14
3412.0 1.1591292383841788e-14
3413.0 1.1591098503397888e-14
3414.0 1.1590904619389963e-14
3415.0 1.1590710731808313e-14
3416.0 1.1590516840643213e-14
3417.0 1.1590322945884924e-14
3418.0 1.1590129047523698e-14
3419.0 1.1589935145549767e-14
3420.0 1.1589741239953358e-14
3421.0 1.1589547330724672e-14
3422.0 1.1589353417853905e-14
3423.0 1.1589159501331237e-14
3424.0 1.1588965581146828e-14
3425.0 1.1588771657290837e-14
3426.0 1.1588577729753391e-14
3427.0 1.1588383798524619e-14
3428.0 1.1588189863594625e-14
3429.0 1.1587995924953506e-14
3430.0 1.1587801982591333e-14
3431.0 1.1587608036498183e-14
3432.0 1.1587414086664101e-14
3433.0 1.1587220133079118e-14
3434.0 1.1587026175733267e-14
3435.0 1.1586832214616547e-14
3436.0 1.1586638249718953e-14
3437.0 1.1586444281030464e-14
3438.0 1.1586250308541048e-14
3439.0 1.1586056332240648e-14
3440.0 1.1585862352119207e-14
3441.0 1.1585668368166638e-14
3442.0 1.1585474380372852e-14
3443.0 1.1585280388727741e-14
3444.0 1.1585086393221183e-14
3445.0 1.1584892393843031e-14
3446.0 1.1584698390583146e-14
3447.0 1.1584504383431352e-14
3448.0 1.1584310372377474e-14
3449.0 1.1584116357411314e-14
3450.0 1.158392233852266e-14
3451.0 1.158372831570128e-14
3452.0 1.1583534288936946e-14
3453.0 1.1583340258219397e-14
3454.0 1.1583146223538363e-14
3455.0 1.1582952184883562e-14
3456.0 1.1582758142244686e-14
3457.0 1.1582564095611435e-14
3458.0 1.1582370044973469e-14
3459.0 1.1582175990320445e-14
3460.0 1.1581981931642004e-14
3461.0 1.158178786892778e-14
3462.0 1.1581593802167373e-14
3463.0 1.1581399731350385e-14
3464.0 1.1581205656466396e-14
3465.0 1.1581011577504972e-14
3466.0 1.1580817494455665e-14
3467.0 1.1580623407308008e-14
3468.0 1.1580429316051524e-14
3469.0 1.158023522067572e-14
3470.0 1.1580041121170086e-14
3471.0 1.1579847017524094e-14
3472.0 1.1579652909727208e-14
3473.0 1.1579458797768873e-14
3474.0 1.1579264681638514e-14
3475.0 1.1579070561325553e-14
3476.0 1.1578876436819384e-14
3477.0 1.1578682308109394e-14
3478.0 1.1578488175184948e-14
3479.0 1.1578294038035403e-14
3480.0 1.1578099896650092e-14
3481.0 1.1577905751018346e-14
3482.0 1.1577711601129467e-14
3483.0 1.1577517446972745e-14
3484.0 1.1577323288537459e-14
3485.0 1.157712912581287e-14
3486.0 1.1576934958788224e-14
3487.0 1.1576740787452747e-14
3488.0 1.157654661179566e-14
3489.0 1.1576352431806157e-14
3490.0 1.157615824747342e-14
3491.0 1.1575964058786619e-14
3492.0 1.1575769865734909e-14
3493.0 1.1575575668307416e-14
3494.0 1.1575381466493278e-14
3495.0 1.157518726028158e-14
3496.0 1.1574993049661426e-14
3497.0 1.1574798834621884e-14
3498.0 1.1574604615152012e-14
3499.0 1.157441039124085e-14
3500.0 1.157421616287743e-14
3500.79 4.5004e-15
3501.58 3.9917e-15
3502.36 4.0848e-15
3503.15 3.9937e-15
3503.94 4.0023e-15
3504.73 4.2977e-15
3505.51 4.2272e-15
3506.3 4.253e-15
3507.09 3.9818e-15
3507.88 4.5909e-15
3508.66 4.4299e-15
3509.45 4.21e-15
3510.24 4.6845e-15
3511.03 4.2339e-15
3511.82 4.4006e-15
3512.6 3.6654e-15
3513.39 3.974e-15
3514.18 4.6498e-15
3514.97 4.993e-15
3515.75 5.0615e-15
3516.54 3.9076e-15
3517.33 4.206e-15
3518.12 4.2132e-15
3518.9 3.696e-15
3519.69 4.447e-15
3520.48 4.2369e-15
3521.27 4.3468e-15
3522.06 4.5426e-15
3522.84 4.5314e-15
3523.63 4.0724e-15
3524.42 3.8814e-15
3525.21 4.6092e-15
3525.99 4.7557e-15
3526.78 4.5067e-15
3527.57 4.4108e-15
3528.36 4.5878e-15
3529.14 4.5979e-15
3529.93 4.8269e-15
3530.72 4.9393e-15
3531.51 4.6911e-15
3532.3 4.6738e-15
3533.08 4.5953e-15
3533.87 4.1298e-15
3534.66 4.7595e-15
3535.45 4.5131e-15
3536.23 4.7038e-15
3537.02 4.875e-15
3537.81 4.7004e-15
3538.6 4.6063e-15
3539.38 4.8623e-15
3540.17 4.9355e-15
3540.96 4.9566e-15
3541.75 5.0882e-15
3542.54 5.0813e-15
3543.32 4.7681e-15
3544.11 5.2462e-15
3544.9 5.1694e-15
3545.69 5.4027e-15
3546.47 5.0302e-15
3547.26 4.9668e-15
3548.05 4.7605e-15
3548.84 4.9355e-15
3549.62 4.8537e-15
3550.41 5.1128e-15
3551.2 4.4633e-15
3551.99 4.6046e-15
3552.78 4.8457e-15
3553.56 5.0857e-15
3554.35 5.2141e-15
3555.14 5.1989e-15
3555.93 4.9063e-15
3556.71 4.5664e-15
3557.5 4.9318e-15
3558.29 5.5764e-15
3559.08 5.1854e-15
3559.86 5.2032e-15
3560.65 5.1435e-15
3561.44 5.2142e-15
3562.23 4.7659e-15
3563.02 5.0172e-15
3563.8 5.6677e-15
3564.59 5.4675e-15
3565.38 5.1694e-15
3566.17 5.9121e-15
3566.95 5.2377e-15
3567.74 4.7434e-15
3568.53 4.7346e-15
3569.32 5.2865e-15
3570.1 4.6726e-15
3570.89 4.6972e-15
3571.68 5.4127e-15
3572.47 4.5493e-15
3573.26 4.1581e-15
3574.04 5.3236e-15
3574.83 4.9886e-15
3575.62 5.1549e-15
3576.41 4.4973e-15
3577.19 4.6482e-15
3577.98 4.6416e-15
3578.77 4.9577e-15
3579.56 5.2602e-15
3580.34 5.0949e-15
3581.13 5.6247e-15
3581.92 5.3305e-15
3582.71 4.6609e-15
3583.5 5.3502e-15
3584.28 5.102e-15
3585.07 4.9435e-15
3585.86 5.0593e-15
3586.65 4.9211e-15
3587.43 5.1702e-15
3588.22 5.0033e-15
3589.01 5.3229e-15
3589.8 4.6283e-15
3590.58 5.2469e-15
3591.37 5.5427e-15
3592.16 5.083e-15
3592.95 5.0909e-15
3593.74 5.1435e-15
3594.52 5.0441e-15
3595.31 5.3327e-15
3596.1 5.1285e-15
3596.89 4.9805e-15
3597.67 4.5628e-15
3598.46 4.2325e-15
3599.25 5.0369e-15
3600.04 4.5608e-15
3600.82 4.8444e-15
3601.61 4.4998e-15
3602.4 4.5328e-15
3603.19 4.8979e-15
3603.98 4.987e-15
3604.76 5.1027e-15
3605.55 4.7831e-15
3606.34 4.8389e-15
3607.13 4.5844e-15
3607.91 4.6684e-15
3608.7 4.7699e-15
3609.49 4.5051e-15
3610.28 4.2279e-15
3611.06 4.3631e-15
3611.85 4.7148e-15
3612.64 4.21e-15
3613.43 4.5822e-15
3614.22 4.8425e-15
3615.0 4.2297e-15
3615.79 4.3761e-15
3616.58 4.369e-15
3617.37 4.248e-15
3618.15 4.4863e-15
3618.94 4.4721e-15
3619.73 5.2031e-15
3620.52 4.8988e-15
3621.3 4.8789e-15
3622.09 4.9479e-15
3622.88 4.7194e-15
3623.67 4.7994e-15
3624.46 4.4454e-15
3625.24 4.6889e-15
3626.03 4.8034e-15
3626.82 4.5877e-15
3627.61 4.6988e-15
3628.39 4.2894e-15
3629.18 4.0685e-15
3629.97 4.4727e-15
3630.76 4.428e-15
3631.54 5.1509e-15
3632.33 4.696e-15
3633.12 4.2102e-15
3633.91 4.3009e-15
3634.7 4.3797e-15
3635.48 4.2074e-15
3636.27 4.2237e-15
3637.06 4.5546e-15
3637.85 4.9078e-15
3638.63 4.2058e-15
3639.42 4.3101e-15
3640.21 3.8088e-15
3641.0 4.5679e-15
3641.78 4.8277e-15
3642.57 4.1599e-15
3643.36 4.4828e-15
3644.15 4.0918e-15
3644.94 4.1692e-15
3645.72 4.5301e-15
3646.51 4.0168e-15
3647.3 4.1018e-15
3648.09 4.6394e-15
3648.87 4.5506e-15
3649.66 4.3919e-15
3650.45 3.8569e-15
3651.24 3.8541e-15
3652.02 4.057e-15
3652.81 4.4878e-15
3653.6 4.5751e-15
3654.39 4.6306e-15
3655.18 4.1402e-15
3655.96 4.5846e-15
3656.75 4.0577e-15
3657.54 4.5899e-15
3658.33 4.5001e-15
3659.11 4.3409e-15
3659.9 4.2341e-15
3660.69 4.3959e-15
3661.48 4.5339e-15
3662.26 4.7437e-15
3663.05 4.7081e-15
3663.84 4.4628e-15
3664.63 4.4974e-15
3665.42 4.5737e-15
3666.2 4.3311e-15
3666.99 4.7424e-15
3667.78 4.4159e-15
3668.57 4.5004e-15
3669.35 4.2312e-15
3670.14 4.4405e-15
3670.93 4.1679e-15
3671.72 4.577e-15
3672.5 5.031e-15
3673.29 5.3448e-15
3674.08 5.1595e-15
3674.87 4.6985e-15
3675.66 4.7661e-15
3676.44 4.6758e-15
3677.23 4.6877e-15
3678.02 4.7087e-15
3678.81 5.0982e-15
3679.59 4.7129e-15
3680.38 4.8359e-15
3681.17 5.9689e-15
3681.96 5.5665e-15
3682.74 5.3024e-15
3683.53 5.1583e-15
3684.32 5.5966e-15
3685.11 5.4859e-15
3685.9 5.4166e-15
3686.68 5.4768e-15
3687.47 5.5175e-15
3688.26 5.6344e-15
3689.05 5.5198e-15
3689.83 5.8094e-15
3690.62 5.5864e-15
3691.41 6.1074e-15
3692.2 5.9886e-15
3692.98 5.9267e-15
3693.77 6.2017e-15
3694.56 5.8833e-15
3695.35 6.198e-15
3696.14 6.1026e-15
3696.92 6.4279e-15
3697.71 6.0917e-15
3698.5 6.0476e-15
3699.29 6.3355e-15
3700.07 6.3754e-15
3700.86 6.291e-15
3701.65 6.2137e-15
3702.44 6.5888e-15
3703.22 6.5038e-15
3704.01 6.3369e-15
3704.8 6.9788e-15
3705.59 6.6711e-15
3706.38 6.9917e-15
3707.16 7.1331e-15
3707.95 6.7986e-15
3708.74 6.9775e-15
3709.53 7.1425e-15
3710.31 7.6498e-15
3711.1 7.5678e-15
3711.89 7.4728e-15
3712.68 7.2199e-15
3713.46 7.3243e-15
3714.25 7.7267e-15
3715.04 7.854e-15
3715.83 8.1308e-15
3716.62 7.7399e-15
3717.4 7.6216e-15
3718.19 8.0561e-15
3718.98 8.1025e-15
3719.77 8.2082e-15
3720.55 8.2475e-15
3721.34 8.4331e-15
3722.13 7.6684e-15
3722.92 8.3791e-15
3723.7 8.5346e-15
3724.49 8.1996e-15
3725.28 8.517e-15
3726.07 8.2398e-15
3726.86 8.4203e-15
3727.64 8.4332e-15
3728.43 8.8031e-15
3729.22 8.3819e-15
3730.01 8.4684e-15
3730.79 9.0616e-15
3731.58 8.7584e-15
3732.37 8.9554e-15
3733.16 8.6427e-15
3733.94 8.7831e-15
3734.73 9.0689e-15
3735.52 8.7752e-15
3736.31 8.8246e-15
3737.1 9.2946e-15
3737.88 8.9787e-15
3738.67 9.116e-15
3739.46 8.8946e-15
3740.25 8.8015e-15
3741.03 9.4607e-15
3741.82 9.0573e-15
3742.61 9.5024e-15
3743.4 9.294e-15
3744.18 9.1322e-15
3744.97 9.5278e-15
3745.76 9.3967e-15
3746.55 9.4754e-15
3747.34 9.1385e-15
3748.12 9.1386e-15
3748.91 9.1562e-15
3749.7 8.9312e-15
3750.49 9.4508e-15
3751.27 9.5326e-15
3752.06 9.7683e-15
3752.85 9.2317e-15
3753.64 8.7251e-15
3754.42 8.9894e-15
3755.21 8.9892e-15
3756.0 8.9181e-15
3756.79 8.8253e-15
3757.58 8.9945e-15
3758.36 9.2663e-15
3759.15 9.1385e-15
3759.94 9.529e-15
3760.73 9.0842e-15
3761.51 8.6929e-15
3762.3 8.7585e-15
3763.09 8.9211e-15
3763.88 9.191e-15
3764.66 9.3026e-15
3765.45 8.9544e-15
3766.24 8.7906e-15
3767.03 8.3731e-15
3767.82 8.4237e-15
3768.6 8.8321e-15
3769.39 8.6128e-15
3770.18 8.6033e-15
3770.97 8.2736e-15
3771.75 8.3011e-15
3772.54 8.293e-15
3773.33 8.5004e-15
3774.12 8.596e-15
3774.9 8.7445e-15
3775.69 8.1967e-15
3776.48 8.2321e-15
3777.27 8.0627e-15
3778.06 8.2514e-15
3778.84 8.303e-15
3779.63 8.1827e-15
3780.42 8.0208e-15
3781.21 8.2263e-15
3781.99 7.6808e-15
3782.78 7.4943e-15
3783.57 7.4347e-15
3784.36 7.5539e-15
3785.14 7.7825e-15
3785.93 7.8727e-15
3786.72 7.8084e-15
3787.51 7.4707e-15
3788.3 7.6652e-15
3789.08 7.3369e-15
3789.87 7.3113e-15
3790.66 7.2623e-15
3791.45 7.0938e-15
3792.23 7.3638e-15
3793.02 7.187e-15
3793.81 6.9089e-15
3794.6 7.0305e-15
3795.38 6.7304e-15
3796.17 6.7575e-15
3796.96 7.2431e-15
3797.75 6.7047e-15
3798.54 6.2744e-15
3799.32 6.2473e-15
3800.11 6.3419e-15
3800.9 6.2244e-15
3801.69 6.0048e-15
3802.47 6.3029e-15
3803.26 6.3271e-15
3804.05 6.0766e-15
3804.84 6.2088e-15
3805.62 5.8085e-15
3806.41 5.4123e-15
3807.2 5.4923e-15
3807.99 5.8097e-15
3808.78 5.4908e-15
3809.56 5.4264e-15
3810.35 5.5042e-15
3811.14 5.5843e-15
3811.93 5.7907e-15
3812.71 5.5692e-15
3813.5 5.2587e-15
3814.29 5.0801e-15
3815.08 4.7962e-15
3815.86 4.9772e-15
3816.65 4.7906e-15
3817.44 4.9527e-15
3818.23 5.0397e-15
3819.02 5.094e-15
3819.8 4.9434e-15
3820.59 4.9279e-15
3821.38 4.8733e-15
3822.17 4.8497e-15
3822.95 4.989e-15
3823.74 4.475e-15
3824.53 4.6578e-15
3825.32 4.7791e-15
3826.1 4.5958e-15
3826.89 4.5545e-15
3827.68 4.5185e-15
3828.47 4.2781e-15
3829.26 4.339e-15
3830.04 4.4276e-15
3830.83 4.4215e-15
3831.62 4.4106e-15
3832.41 4.4105e-15
3833.19 4.3373e-15
3833.98 4.3115e-15
3834.77 4.1162e-15
3835.56 4.3429e-15
3836.34 4.3574e-15
3837.13 4.2768e-15
3837.92 4.0928e-15
3838.71 3.9236e-15
3839.5 4.1451e-15
3840.28 4.0548e-15
3841.07 4.1428e-15
3841.86 4.1756e-15
3842.65 3.9656e-15
3843.43 3.8481e-15
3844.22 3.8115e-15
3845.01 4.0303e-15
3845.8 3.9042e-15
3846.59 3.9402e-15
3847.37 4.0689e-15
3848.16 3.6589e-15
3848.95 3.7357e-15
3849.74 4.1186e-15
3850.52 4.1276e-15
3851.31 3.8526e-15
3852.1 3.7848e-15
3852.89 3.9466e-15
3853.67 4.1821e-15
3854.46 3.9574e-15
3855.25 3.9173e-15
3856.04 4.0857e-15
3856.83 4.0441e-15
3857.61 4.2212e-15
3858.4 4.4402e-15
3859.19 4.3943e-15
3859.98 4.3243e-15
3860.76 4.3124e-15
3861.55 4.5299e-15
3862.34 4.5919e-15
3863.13 4.4159e-15
3863.91 4.6226e-15
3864.7 4.7191e-15
3865.49 4.9248e-15
3866.28 4.6529e-15
3867.07 4.9581e-15
3867.85 5.0081e-15
3868.64 4.5283e-15
3869.43 4.6391e-15
3870.22 4.8813e-15
3871.0 4.3219e-15
3871.79 4.5762e-15
3872.58 4.6216e-15
3873.37 5.3664e-15
3874.15 5.4901e-15
3874.94 5.5893e-15
3875.73 5.5222e-15
3876.52 5.8805e-15
3877.31 5.6905e-15
3878.09 5.5478e-15
3878.88 5.7504e-15
3879.67 5.8091e-15
3880.46 5.9025e-15
3881.24 5.9216e-15
3882.03 5.9809e-15
3882.82 6.0599e-15
3883.61 6.0829e-15
3884.39 6.1739e-15
3885.18 6.0638e-15
3885.97 5.8657e-15
3886.76 6.1772e-15
3887.55 6.4951e-15
3888.33 6.4329e-15
3889.12 6.4551e-15
3889.91 6.429e-15
3890.7 6.5565e-15
3891.48 6.605e-15
3892.27 6.7684e-15
3893.06 6.7239e-15
3893.85 7.0722e-15
3894.63 7.0494e-15
3895.42 7.4186e-15
3896.21 7.2545e-15
3897.0 7.3067e-15
3897.79 7.1877e-15
3898.57 7.3913e-15
3899.36 7.322e-15
3900.15 7.7886e-15
3900.94 7.6159e-15
3901.72 8.0165e-15
3902.51 7.8885e-15
3903.3 7.9702e-15
3904.09 8.2922e-15
3904.87 7.9637e-15
3905.66 8.6795e-15
3906.45 8.5033e-15
3907.24 8.4113e-15
3908.03 8.31e-15
3908.81 8.821e-15
3909.6 8.351e-15
3910.39 8.4788e-15
3911.18 8.9749e-15
3911.96 9.0054e-15
3912.75 8.8809e-15
3913.54 9.3142e-15
3914.33 9.5374e-15
3915.11 9.3823e-15
3915.9 9.4554e-15
3916.69 9.8658e-15
3917.48 9.8665e-15
3918.27 9.8024e-15
3919.05 9.7145e-15
3919.84 9.9481e-15
3920.63 1.0224e-14
3921.42 1.0028e-14
3922.2 1.0078e-14
3922.99 1.0012e-14
3923.78 1.0177e-14
3924.57 1.0253e-14
3925.35 1.0481e-14
3926.14 1.0428e-14
3926.93 1.0392e-14
3927.72 1.0581e-14
3928.51 1.0572e-14
3929.29 1.0469e-14
3930.08 1.074e-14
3930.87 1.079e-14
3931.66 1.0355e-14
3932.44 9.6624e-15
3933.23 9.8551e-15
3934.02 1.0442e-14
3934.81 1.0762e-14
3935.59 1.0991e-14
3936.38 1.1224e-14
3937.17 1.1108e-14
3937.96 1.1209e-14
3938.75 1.1289e-14
3939.53 1.0967e-14
3940.32 1.0342e-14
3941.11 1.0437e-14
3941.9 1.1261e-14
3942.68 1.1604e-14
3943.47 1.2018e-14
3944.26 1.1805e-14
3945.05 1.1553e-14
3945.83 1.1436e-14
3946.62 1.1595e-14
3947.41 1.1742e-14
3948.2 1.2162e-14
3948.99 1.187e-14
3949.77 1.1684e-14
3950.56 1.216e-14
3951.35 1.2217e-14
3952.14 1.2199e-14
3952.92 1.2039e-14
3953.71 1.2218e-14
3954.5 1.22e-14
3955.29 1.2091e-14
3956.07 1.2264e-14
3956.86 1.2303e-14
3957.65 1.2396e-14
3958.44 1.2578e-14
3959.23 1.2944e-14
3960.01 1.2921e-14
3960.8 1.2585e-14
3961.59 1.2433e-14
3962.38 1.2581e-14
3963.16 1.3161e-14
3963.95 1.2731e-14
3964.74 1.271e-14
3965.53 1.284e-14
3966.31 1.2514e-14
3967.1 1.1943e-14
3967.89 1.183e-14
3968.68 1.2346e-14
3969.47 1.2939e-14
3970.25 1.2697e-14
3971.04 1.2981e-14
3971.83 1.2946e-14
3972.62 1.29e-14
3973.4 1.2746e-14
3974.19 1.2736e-14
3974.98 1.2636e-14
3975.77 1.2172e-14
3976.55 1.262e-14
3977.34 1.2871e-14
3978.13 1.2789e-14
3978.92 1.2991e-14
3979.71 1.3292e-14
3980.49 1.3036e-14
3981.28 1.2863e-14
3982.07 1.2889e-14
3982.86 1.3069e-14
3983.64 1.3031e-14
3984.43 1.3188e-14
3985.22 1.3036e-14
3986.01 1.3018e-14
3986.79 1.2941e-14
3987.58 1.2844e-14
3988.37 1.3024e-14
3989.16 1.3155e-14
3989.95 1.345e-14
3990.73 1.3491e-14
3991.52 1.3397e-14
3992.31 1.3184e-14
3993.1 1.3357e-14
3993.88 1.3346e-14
3994.67 1.3572e-14
3995.46 1.3374e-14
3996.25 1.381e-14
3997.03 1.3126e-14
3997.82 1.3314e-14
3998.61 1.3725e-14
3999.4 1.3688e-14
4000.19 1.339e-14
4000.97 1.3507e-14
4001.76 1.3611e-14
4002.55 1.3824e-14
4003.34 1.381e-14
4004.12 1.3581e-14
4004.91 1.323e-14
4005.7 1.3377e-14
4006.49 1.3376e-14
4007.27 1.3389e-14
4008.06 1.319e-14
4008.85 1.3246e-14
4009.64 1.2934e-14
4010.43 1.2966e-14
4011.21 1.2714e-14
4012.0 1.2837e-14
4012.79 1.2851e-14
4013.58 1.2612e-14
4014.36 1.2995e-14
4015.15 1.2943e-14
4015.94 1.2894e-14
4016.73 1.2918e-14
4017.51 1.294e-14
4018.3 1.2805e-14
4019.09 1.2259e-14
4019.88 1.2787e-14
4020.67 1.2637e-14
4021.45 1.273e-14
4022.24 1.2899e-14
4023.03 1.2572e-14
4023.82 1.231e-14
4024.6 1.2379e-14
4025.39 1.2276e-14
4026.18 1.2356e-14
4026.97 1.225e-14
4027.75 1.2219e-14
4028.54 1.1862e-14
4029.33 1.1726e-14
4030.12 1.2137e-14
4030.91 1.1719e-14
4031.69 1.1992e-14
4032.48 1.1722e-14
4033.27 1.1898e-14
4034.06 1.1544e-14
4034.84 1.1617e-14
4035.63 1.1284e-14
4036.42 1.1355e-14
4037.21 1.1246e-14
4037.99 1.1032e-14
4038.78 1.101e-14
4039.57 1.1087e-14
4040.36 1.1343e-14
4041.15 1.104e-14
4041.93 1.0715e-14
4042.72 1.1066e-14
4043.51 1.0905e-14
4044.3 1.0693e-14
4045.08 1.0658e-14
4045.87 1.071e-14
4046.66 1.0625e-14
4047.45 1.0778e-14
4048.23 1.0494e-14
4049.02 1.0475e-14
4049.81 1.0505e-14
4050.6 1.0568e-14
4051.39 1.0644e-14
4052.17 1.0401e-14
4052.96 1.0206e-14
4053.75 1.0339e-14
4054.54 1.0412e-14
4055.32 1.0486e-14
4056.11 1.0439e-14
4056.9 1.0616e-14
4057.69 1.033e-14
4058.47 1.0406e-14
4059.26 1.0703e-14
4060.05 1.0729e-14
4060.84 1.0522e-14
4061.63 1.0703e-14
4062.41 1.0853e-14
4063.2 1.0423e-14
4063.99 1.0353e-14
4064.78 1.0513e-14
4065.56 1.0902e-14
4066.35 1.0343e-14
4067.14 1.057e-14
4067.93 1.0536e-14
4068.71 1.0446e-14
4069.5 1.0072e-14
4070.29 1.0102e-14
4071.08 1.0312e-14
4071.87 1.0383e-14
4072.65 1.0532e-14
4073.44 1.0014e-14
4074.23 1.0141e-14
4075.02 1.0373e-14
4075.8 1.0138e-14
4076.59 1.0416e-14
4077.38 1.0601e-14
4078.17 1.0518e-14
4078.95 1.027e-14
4079.74 1.0063e-14
4080.53 1.0602e-14
4081.32 1.0229e-14
4082.11 1.02e-14
4082.89 1.0079e-14
4083.68 1.0247e-14
4084.47 1.0276e-14
4085.26 1e-14
